#LICA Lamps Spectra Database
#Website 1: https://guaix.fis.ucm.es/lamps_spectra
#Website 2: http://carlostapia.es/lamparas/lamps.html
#Latest update: 2017/12/15
#Tester: Carlos Eugenio Tapia Ayuga
#Correct for Electrical Dark: Yes (JAZA2310)
#Correct for Detector Non-linearity: Yes (JAZA2310)
#Correct for Flux: Yes
#Start wavelength (nm): 300
#End wavelength (nm): 900
#Steps (nm):	1
#Locus: D65 sRGB Gamma 1 CIE1931
#XYZ coordinates: 0.3044	0.2512	0.0891
#xyY coordinates: 0.4721	0.3896	0.2512
#sRGB: 142	46	15
#CCT Lindbloom (K):	2378
#CCT McCamy (K):	2350
#CCT Hernández-Andrés (K):	2218
#Melatonin: 0.334
#Chlorophyll a: 0.407
#Chlorophyll b: 0.547
#Beta Carotene: 0.408
#Manufacturer: Unknown
#Luminance manufacturer: Unknown
#Other data:
#Begin Processed Spectral Data
W	S
300.00000000	0.00000000
301.00000000	0.00000000
302.00000000	0.00000000
303.00000000	0.00000000
304.00000000	0.00000000
305.00000000	0.00000000
306.00000000	0.00000000
307.00000000	0.00000000
308.00000000	0.00000000
309.00000000	0.00000000
310.00000000	0.00000000
311.00000000	0.00000000
312.00000000	0.00000000
313.00000000	0.00000000
314.00000000	0.00000000
315.00000000	0.00000000
316.00000000	0.00000000
317.00000000	0.00000000
318.00000000	0.00000000
319.00000000	0.00000000
320.00000000	0.00000000
321.00000000	0.00000000
322.00000000	0.00000000
323.00000000	0.00000000
324.00000000	0.00000000
325.00000000	0.00000000
326.00000000	0.00000000
327.00000000	0.00000000
328.00000000	0.00000000
329.00000000	0.00000000
330.00000000	0.00000000
331.00000000	0.00000000
332.00000000	0.00000000
333.00000000	0.00000000
334.00000000	0.00000000
335.00000000	0.00000000
336.00000000	0.00000000
337.00000000	0.00000000
338.00000000	0.00000000
339.00000000	0.00000000
340.00000000	0.00000000
341.00000000	0.00000000
342.00000000	0.00000000
343.00000000	0.00000000
344.00000000	0.00000000
345.00000000	0.00000000
346.00000000	0.00000000
347.00000000	0.00000000
348.00000000	0.00000000
349.00000000	0.00000000
350.00000000	0.00000000
351.00000000	0.00038661
352.00000000	0.00000000
353.00000000	0.00000000
354.00000000	0.00000000
355.00000000	0.00000000
356.00000000	0.00000000
357.00000000	0.00000000
358.00000000	0.00000000
359.00000000	0.00000000
360.00000000	0.00000000
361.00000000	0.00000000
362.00000000	0.00000000
363.00000000	0.00000000
364.00000000	0.00000000
365.00000000	0.00000000
366.00000000	0.00000000
367.00000000	0.00000000
368.00000000	0.00000000
369.00000000	0.00000000
370.00000000	0.00000000
371.00000000	0.00000000
372.00000000	0.00000000
373.00000000	0.00000000
374.00000000	0.00000000
375.00000000	0.00000000
376.00000000	0.00000000
377.00000000	0.00000000
378.00000000	0.00000000
379.00000000	0.00000000
380.00000000	0.00000000
381.00000000	0.00000000
382.00000000	0.00000000
383.00000000	0.00000000
384.00000000	0.00017995
385.00000000	0.00000000
386.00000000	0.00000000
387.00000000	0.00000000
388.00000000	0.00045444
389.00000000	0.00061576
390.00000000	0.00335964
391.00000000	0.00350093
392.00000000	0.00596487
393.00000000	0.00703139
394.00000000	0.01041107
395.00000000	0.01417103
396.00000000	0.01874814
397.00000000	0.01965422
398.00000000	0.01994365
399.00000000	0.01996368
400.00000000	0.02579201
401.00000000	0.02831376
402.00000000	0.02976285
403.00000000	0.03645577
404.00000000	0.05233896
405.00000000	0.07571026
406.00000000	0.07229473
407.00000000	0.05565291
408.00000000	0.04850572
409.00000000	0.05155677
410.00000000	0.06595819
411.00000000	0.08154895
412.00000000	0.07721663
413.00000000	0.08111472
414.00000000	0.08159447
415.00000000	0.07019491
416.00000000	0.06789739
417.00000000	0.09354793
418.00000000	0.09866314
419.00000000	0.10290829
420.00000000	0.11409399
421.00000000	0.11705155
422.00000000	0.13638401
423.00000000	0.13285056
424.00000000	0.10140034
425.00000000	0.08539836
426.00000000	0.07967143
427.00000000	0.07484425
428.00000000	0.06917707
429.00000000	0.06704069
430.00000000	0.06718585
431.00000000	0.06756227
432.00000000	0.06486179
433.00000000	0.06382990
434.00000000	0.06544663
435.00000000	0.09097609
436.00000000	0.19316810
437.00000000	0.18723908
438.00000000	0.13379618
439.00000000	0.10107787
440.00000000	0.08785949
441.00000000	0.08514109
442.00000000	0.07944597
443.00000000	0.07963048
444.00000000	0.07971571
445.00000000	0.07964894
446.00000000	0.07641793
447.00000000	0.07354120
448.00000000	0.07199862
449.00000000	0.07196418
450.00000000	0.06782745
451.00000000	0.07009474
452.00000000	0.07760342
453.00000000	0.07921910
454.00000000	0.08101736
455.00000000	0.08189778
456.00000000	0.08180851
457.00000000	0.08086781
458.00000000	0.08369640
459.00000000	0.08930172
460.00000000	0.08478699
461.00000000	0.08451373
462.00000000	0.08498996
463.00000000	0.07530765
464.00000000	0.07741415
465.00000000	0.07798985
466.00000000	0.07493405
467.00000000	0.07958761
468.00000000	0.09103162
469.00000000	0.09825526
470.00000000	0.10048161
471.00000000	0.10194071
472.00000000	0.09830253
473.00000000	0.09807883
474.00000000	0.08709171
475.00000000	0.07314510
476.00000000	0.06663071
477.00000000	0.05891010
478.00000000	0.05805534
479.00000000	0.05522922
480.00000000	0.05233333
481.00000000	0.05123308
482.00000000	0.04974269
483.00000000	0.05070852
484.00000000	0.04940002
485.00000000	0.04697439
486.00000000	0.04657706
487.00000000	0.04768083
488.00000000	0.05217728
489.00000000	0.05597468
490.00000000	0.05421999
491.00000000	0.05471239
492.00000000	0.05700517
493.00000000	0.05689446
494.00000000	0.06534717
495.00000000	0.06392479
496.00000000	0.06701926
497.00000000	0.07455728
498.00000000	0.09848477
499.00000000	0.11428501
500.00000000	0.11059710
501.00000000	0.09705203
502.00000000	0.08406491
503.00000000	0.07472352
504.00000000	0.07326934
505.00000000	0.07206768
506.00000000	0.06852809
507.00000000	0.07101874
508.00000000	0.06824007
509.00000000	0.06254266
510.00000000	0.05808961
511.00000000	0.06005271
512.00000000	0.06282401
513.00000000	0.06471875
514.00000000	0.06390089
515.00000000	0.06945683
516.00000000	0.07737215
517.00000000	0.07457415
518.00000000	0.07462810
519.00000000	0.07618262
520.00000000	0.07176507
521.00000000	0.07435501
522.00000000	0.07780199
523.00000000	0.07929361
524.00000000	0.07648102
525.00000000	0.06954769
526.00000000	0.06583798
527.00000000	0.06408910
528.00000000	0.06342308
529.00000000	0.06345787
530.00000000	0.07606172
531.00000000	0.10049444
532.00000000	0.09321878
533.00000000	0.10743884
534.00000000	0.17269673
535.00000000	0.33458367
536.00000000	0.48272291
537.00000000	0.64675202
538.00000000	0.66781543
539.00000000	0.64595384
540.00000000	0.52851638
541.00000000	0.38929852
542.00000000	0.25304948
543.00000000	0.17338631
544.00000000	0.12298971
545.00000000	0.11565115
546.00000000	0.27993629
547.00000000	0.34740700
548.00000000	0.22170645
549.00000000	0.18156153
550.00000000	0.12125682
551.00000000	0.09588569
552.00000000	0.08891265
553.00000000	0.09021377
554.00000000	0.09261321
555.00000000	0.09654943
556.00000000	0.09514867
557.00000000	0.09592348
558.00000000	0.09301124
559.00000000	0.09082145
560.00000000	0.08987935
561.00000000	0.09262938
562.00000000	0.09591908
563.00000000	0.11314556
564.00000000	0.13006750
565.00000000	0.13407067
566.00000000	0.15208864
567.00000000	0.19032581
568.00000000	0.26702157
569.00000000	0.38772677
570.00000000	0.43435356
571.00000000	0.34973141
572.00000000	0.27739995
573.00000000	0.21342666
574.00000000	0.17340370
575.00000000	0.16187762
576.00000000	0.17197043
577.00000000	0.20397105
578.00000000	0.20097271
579.00000000	0.21295992
580.00000000	0.21217545
581.00000000	0.20781870
582.00000000	0.21239740
583.00000000	0.22454311
584.00000000	0.25077551
585.00000000	0.30667936
586.00000000	0.39364191
587.00000000	0.51540783
588.00000000	0.51316109
589.00000000	0.30611491
590.00000000	0.18798401
591.00000000	0.14512157
592.00000000	0.15107871
593.00000000	0.21454256
594.00000000	0.29643665
595.00000000	0.37638327
596.00000000	0.44566684
597.00000000	0.49952359
598.00000000	0.54775534
599.00000000	0.57700839
600.00000000	0.60311249
601.00000000	0.61060588
602.00000000	0.61728493
603.00000000	0.61762831
604.00000000	0.60934061
605.00000000	0.59473482
606.00000000	0.58626454
607.00000000	0.56325420
608.00000000	0.54632629
609.00000000	0.53050830
610.00000000	0.51187948
611.00000000	0.49772831
612.00000000	0.48125502
613.00000000	0.46783138
614.00000000	0.45230037
615.00000000	0.45074496
616.00000000	0.47729455
617.00000000	0.47961368
618.00000000	0.44502875
619.00000000	0.42541566
620.00000000	0.40589061
621.00000000	0.38395012
622.00000000	0.37474440
623.00000000	0.36488443
624.00000000	0.35815671
625.00000000	0.35100740
626.00000000	0.35807200
627.00000000	0.34946711
628.00000000	0.33464798
629.00000000	0.32548128
630.00000000	0.31832459
631.00000000	0.31400633
632.00000000	0.30312255
633.00000000	0.29900269
634.00000000	0.29132952
635.00000000	0.28830043
636.00000000	0.28008444
637.00000000	0.27896608
638.00000000	0.27187547
639.00000000	0.26490875
640.00000000	0.25839401
641.00000000	0.25573115
642.00000000	0.25378527
643.00000000	0.24965047
644.00000000	0.24313749
645.00000000	0.23633947
646.00000000	0.23945063
647.00000000	0.23786096
648.00000000	0.23420767
649.00000000	0.22833137
650.00000000	0.21783859
651.00000000	0.21265467
652.00000000	0.20829371
653.00000000	0.20352821
654.00000000	0.20462987
655.00000000	0.21306061
656.00000000	0.22231272
657.00000000	0.22279054
658.00000000	0.23020010
659.00000000	0.22038881
660.00000000	0.21589148
661.00000000	0.22057140
662.00000000	0.20286886
663.00000000	0.19729130
664.00000000	0.18972780
665.00000000	0.18362586
666.00000000	0.18606607
667.00000000	0.19319376
668.00000000	0.19425132
669.00000000	0.20162116
670.00000000	0.20943298
671.00000000	0.21293742
672.00000000	0.21555179
673.00000000	0.21444819
674.00000000	0.21061987
675.00000000	0.20886694
676.00000000	0.20242953
677.00000000	0.19867449
678.00000000	0.18797821
679.00000000	0.18203865
680.00000000	0.17229606
681.00000000	0.16022381
682.00000000	0.15124671
683.00000000	0.14730821
684.00000000	0.15330453
685.00000000	0.14200251
686.00000000	0.13278185
687.00000000	0.11804514
688.00000000	0.11047057
689.00000000	0.10350315
690.00000000	0.09915114
691.00000000	0.09459037
692.00000000	0.09292039
693.00000000	0.09214682
694.00000000	0.09183366
695.00000000	0.08914602
696.00000000	0.08878032
697.00000000	0.08541013
698.00000000	0.08153331
699.00000000	0.08218615
700.00000000	0.08215769
701.00000000	0.08016541
702.00000000	0.07926285
703.00000000	0.07726021
704.00000000	0.07582132
705.00000000	0.07191550
706.00000000	0.07294177
707.00000000	0.07222865
708.00000000	0.07161465
709.00000000	0.06909693
710.00000000	0.07128462
711.00000000	0.06972904
712.00000000	0.07060682
713.00000000	0.06767491
714.00000000	0.06784713
715.00000000	0.06668238
716.00000000	0.06615676
717.00000000	0.06898060
718.00000000	0.06723997
719.00000000	0.06652721
720.00000000	0.06652650
721.00000000	0.06681207
722.00000000	0.06746790
723.00000000	0.06507250
724.00000000	0.06555787
725.00000000	0.06637502
726.00000000	0.06425569
727.00000000	0.06382919
728.00000000	0.06371409
729.00000000	0.06187909
730.00000000	0.06141323
731.00000000	0.06072454
732.00000000	0.06194517
733.00000000	0.06041349
734.00000000	0.06396591
735.00000000	0.05854353
736.00000000	0.06064915
737.00000000	0.05889991
738.00000000	0.06044846
739.00000000	0.05894736
740.00000000	0.06057587
741.00000000	0.05950091
742.00000000	0.05877391
743.00000000	0.05491308
744.00000000	0.05644001
745.00000000	0.05748615
746.00000000	0.05798927
747.00000000	0.05885088
748.00000000	0.05587275
749.00000000	0.05636515
750.00000000	0.06018065
751.00000000	0.05948721
752.00000000	0.05737842
753.00000000	0.05908408
754.00000000	0.05832579
755.00000000	0.06330428
756.00000000	0.07094107
757.00000000	0.06670839
758.00000000	0.06226237
759.00000000	0.05890184
760.00000000	0.06002319
761.00000000	0.06022194
762.00000000	0.05736366
763.00000000	0.05601035
764.00000000	0.05751672
765.00000000	0.05606975
766.00000000	0.07961695
767.00000000	0.13273686
768.00000000	0.10586498
769.00000000	0.08991942
770.00000000	0.11337893
771.00000000	0.09974758
772.00000000	0.07620213
773.00000000	0.07300047
774.00000000	0.06092276
775.00000000	0.05603407
776.00000000	0.05238412
777.00000000	0.04905418
778.00000000	0.04936223
779.00000000	0.04927982
780.00000000	0.04864191
781.00000000	0.05020329
782.00000000	0.05230733
783.00000000	0.04905154
784.00000000	0.04977643
785.00000000	0.04923852
786.00000000	0.04834211
787.00000000	0.04770895
788.00000000	0.04372651
789.00000000	0.04532128
790.00000000	0.04646775
791.00000000	0.04547416
792.00000000	0.04815917
793.00000000	0.05011612
794.00000000	0.04648374
795.00000000	0.04405390
796.00000000	0.04558733
797.00000000	0.04479496
798.00000000	0.04530546
799.00000000	0.04509862
800.00000000	0.04378257
801.00000000	0.04226319
802.00000000	0.04437408
803.00000000	0.04275137
804.00000000	0.04858409
805.00000000	0.04916875
806.00000000	0.04490339
807.00000000	0.04745589
808.00000000	0.04699442
809.00000000	0.04542408
810.00000000	0.04878706
811.00000000	0.05521253
812.00000000	0.05032946
813.00000000	0.05639538
814.00000000	0.06382339
815.00000000	0.07034955
816.00000000	0.09153668
817.00000000	0.16172403
818.00000000	0.42094750
819.00000000	0.78980751
820.00000000	0.97061164
821.00000000	1.00000000
822.00000000	0.85719211
823.00000000	0.64469630
824.00000000	0.46857561
825.00000000	0.34147728
826.00000000	0.26206699
827.00000000	0.21448263
828.00000000	0.17979402
829.00000000	0.15307415
830.00000000	0.13429772
831.00000000	0.11959000
832.00000000	0.11792617
833.00000000	0.10598800
834.00000000	0.09695151
835.00000000	0.08875660
836.00000000	0.08823590
837.00000000	0.07748023
838.00000000	0.07479065
839.00000000	0.06974802
840.00000000	0.06818541
841.00000000	0.05684350
842.00000000	0.06012634
843.00000000	0.05017974
844.00000000	0.05855758
845.00000000	0.05270624
846.00000000	0.04716998
847.00000000	0.04716857
848.00000000	0.05052031
849.00000000	0.04332162
850.00000000	0.04835230
851.00000000	0.05453473
852.00000000	0.04554727
853.00000000	0.04253891
854.00000000	0.04057757
855.00000000	0.03189676
856.00000000	0.04374391
857.00000000	0.04175198
858.00000000	0.04078950
859.00000000	0.05252102
860.00000000	0.04504204
861.00000000	0.03580908
862.00000000	0.03560787
863.00000000	0.03289246
864.00000000	0.04346502
865.00000000	0.04117804
866.00000000	0.03456753
867.00000000	0.03833804
868.00000000	0.04294433
869.00000000	0.03501038
870.00000000	0.03163070
871.00000000	0.03228091
872.00000000	0.03613489
873.00000000	0.03168535
874.00000000	0.02273884
875.00000000	0.02513319
876.00000000	0.03465522
877.00000000	0.04272501
878.00000000	0.03288349
879.00000000	0.03995477
880.00000000	0.03664504
881.00000000	0.02673042
882.00000000	0.03441324
883.00000000	0.03151226
884.00000000	0.02754651
885.00000000	0.03310140
886.00000000	0.02302265
887.00000000	0.02204628
888.00000000	0.02624030
889.00000000	0.02110752
890.00000000	0.01778460
891.00000000	0.02323019
892.00000000	0.02822150
893.00000000	0.02669158
894.00000000	0.01744017
895.00000000	0.02744881
896.00000000	0.02947658
897.00000000	0.03485925
898.00000000	0.02914216
899.00000000	0.02524917
900.00000000	0.00000000
