#LICA Lamps Spectra Database
#Website 1: https://guaix.fis.ucm.es/lamps_spectra
#Website 2: http://carlostapia.es/lamparas/lamps.html
#Latest update: 2017/12/15
#Tester: Carlos Eugenio Tapia Ayuga
#Correct for Electrical Dark: Yes (JAZA2310)
#Correct for Detector Non-linearity: Yes (JAZA2310)
#Correct for Flux: Yes
#Start wavelength (nm): 300
#End wavelength (nm): 900
#Steps (nm):	1
#Locus: D65 sRGB Gamma 1 CIE1931
#XYZ coordinates: 0.3812	0.3366	0.1179
#xyY coordinates: 0.4561	0.4028	0.3366
#sRGB: 168	68	20
#CCT Lindbloom (K):	2691
#CCT McCamy (K):	2686
#CCT Hernández-Andrés (K):	2604
#Melatonin: 0.344
#Chlorophyll a: 0.464
#Chlorophyll b: 0.539
#Beta Carotene: 0.465
#Manufacturer: Unknown
#Luminance manufacturer: Unknown
#Other data:
#Begin Processed Spectral Data
W	S
300.00000000	0.00000000
301.00000000	0.00103302
302.00000000	0.00279056
303.00000000	0.00000000
304.00000000	0.00000000
305.00000000	0.00000000
306.00000000	0.00743538
307.00000000	0.00000000
308.00000000	0.00000000
309.00000000	0.00000000
310.00000000	0.00000118
311.00000000	0.00000000
312.00000000	0.00000000
313.00000000	0.00000000
314.00000000	0.00000000
315.00000000	0.00450016
316.00000000	0.00000000
317.00000000	0.00000000
318.00000000	0.00000000
319.00000000	0.00000000
320.00000000	0.00022137
321.00000000	0.00199960
322.00000000	0.00000000
323.00000000	0.00000000
324.00000000	0.00000000
325.00000000	0.00000000
326.00000000	0.00000000
327.00000000	0.00000000
328.00000000	0.00000000
329.00000000	0.00155282
330.00000000	0.00376656
331.00000000	0.00000000
332.00000000	0.01698324
333.00000000	0.00000000
334.00000000	0.00191432
335.00000000	0.00000000
336.00000000	0.00000000
337.00000000	0.00000000
338.00000000	0.00826503
339.00000000	0.00328344
340.00000000	0.00153684
341.00000000	0.00475231
342.00000000	0.00975292
343.00000000	0.01541310
344.00000000	0.01067239
345.00000000	0.01458631
346.00000000	0.02027829
347.00000000	0.01394456
348.00000000	0.02059067
349.00000000	0.02513591
350.00000000	0.03507706
351.00000000	0.06295861
352.00000000	0.05275639
353.00000000	0.04110985
354.00000000	0.05794506
355.00000000	0.07698627
356.00000000	0.06639311
357.00000000	0.06666512
358.00000000	0.05963447
359.00000000	0.05918718
360.00000000	0.06203308
361.00000000	0.06183374
362.00000000	0.05883325
363.00000000	0.06217876
364.00000000	0.08191993
365.00000000	0.12909284
366.00000000	0.13385777
367.00000000	0.11398186
368.00000000	0.09800068
369.00000000	0.07908159
370.00000000	0.06693931
371.00000000	0.06035040
372.00000000	0.06053308
373.00000000	0.06091191
374.00000000	0.05735125
375.00000000	0.05762528
376.00000000	0.05610964
377.00000000	0.04879857
378.00000000	0.01712000
379.00000000	0.00264825
380.00000000	0.00000000
381.00000000	0.00394622
382.00000000	0.00818513
383.00000000	0.01666010
384.00000000	0.02481276
385.00000000	0.02440904
386.00000000	0.01940255
387.00000000	0.02292317
388.00000000	0.02357939
389.00000000	0.02746690
390.00000000	0.02753402
391.00000000	0.02692726
392.00000000	0.02839832
393.00000000	0.03193274
394.00000000	0.03405295
395.00000000	0.03665343
396.00000000	0.04137344
397.00000000	0.04170382
398.00000000	0.03712242
399.00000000	0.03782944
400.00000000	0.04307446
401.00000000	0.04165235
402.00000000	0.04095525
403.00000000	0.05087437
404.00000000	0.05825727
405.00000000	0.07669930
406.00000000	0.07301382
407.00000000	0.06308764
408.00000000	0.06108467
409.00000000	0.05659780
410.00000000	0.06436222
411.00000000	0.08268094
412.00000000	0.08433705
413.00000000	0.09646637
414.00000000	0.08871709
415.00000000	0.07418259
416.00000000	0.07235440
417.00000000	0.09209440
418.00000000	0.09156182
419.00000000	0.08934185
420.00000000	0.08552416
421.00000000	0.09615029
422.00000000	0.11954346
423.00000000	0.13044817
424.00000000	0.11145136
425.00000000	0.09698869
426.00000000	0.09236977
427.00000000	0.08415369
428.00000000	0.08214080
429.00000000	0.09088138
430.00000000	0.08947946
431.00000000	0.09316392
432.00000000	0.08462470
433.00000000	0.08318795
434.00000000	0.08177492
435.00000000	0.11019646
436.00000000	0.18639716
437.00000000	0.15024519
438.00000000	0.12623987
439.00000000	0.10834371
440.00000000	0.10278193
441.00000000	0.10424542
442.00000000	0.09939588
443.00000000	0.10786513
444.00000000	0.10683177
445.00000000	0.11022169
446.00000000	0.11069421
447.00000000	0.10246972
448.00000000	0.09934138
449.00000000	0.10176825
450.00000000	0.10026859
451.00000000	0.10347297
452.00000000	0.10672058
453.00000000	0.11056199
454.00000000	0.10990712
455.00000000	0.11345584
456.00000000	0.11595522
457.00000000	0.11026929
458.00000000	0.11260096
459.00000000	0.11218731
460.00000000	0.11170537
461.00000000	0.11444647
462.00000000	0.11433394
463.00000000	0.11174053
464.00000000	0.11925178
465.00000000	0.11647148
466.00000000	0.11106732
467.00000000	0.12102243
468.00000000	0.12732454
469.00000000	0.13514396
470.00000000	0.14124100
471.00000000	0.14334625
472.00000000	0.14081222
473.00000000	0.13063051
474.00000000	0.11555940
475.00000000	0.11235250
476.00000000	0.11159569
477.00000000	0.10132332
478.00000000	0.10251648
479.00000000	0.09765802
480.00000000	0.09371551
481.00000000	0.08923133
482.00000000	0.09185233
483.00000000	0.09218204
484.00000000	0.08934387
485.00000000	0.08583822
486.00000000	0.09158066
487.00000000	0.09189388
488.00000000	0.09578677
489.00000000	0.09410224
490.00000000	0.09578408
491.00000000	0.09484341
492.00000000	0.10205775
493.00000000	0.10659643
494.00000000	0.11975777
495.00000000	0.11363280
496.00000000	0.11977914
497.00000000	0.13466218
498.00000000	0.17027586
499.00000000	0.19432844
500.00000000	0.18278805
501.00000000	0.15868550
502.00000000	0.14604547
503.00000000	0.13398410
504.00000000	0.13675649
505.00000000	0.12822130
506.00000000	0.11866890
507.00000000	0.11545090
508.00000000	0.11415310
509.00000000	0.11095058
510.00000000	0.10553515
511.00000000	0.10648036
512.00000000	0.11039630
513.00000000	0.11648897
514.00000000	0.11324203
515.00000000	0.13123812
516.00000000	0.14003270
517.00000000	0.13589572
518.00000000	0.14234720
519.00000000	0.14366872
520.00000000	0.13832563
521.00000000	0.13627842
522.00000000	0.14792076
523.00000000	0.14948282
524.00000000	0.14651765
525.00000000	0.13081387
526.00000000	0.12698860
527.00000000	0.12458965
528.00000000	0.12319227
529.00000000	0.12391241
530.00000000	0.13865718
531.00000000	0.14693853
532.00000000	0.16843859
533.00000000	0.22031822
534.00000000	0.39437174
535.00000000	0.45107300
536.00000000	0.49763831
537.00000000	0.70870171
538.00000000	0.76097380
539.00000000	0.78843414
540.00000000	0.71997481
541.00000000	0.55954270
542.00000000	0.39449808
543.00000000	0.29180681
544.00000000	0.22326254
545.00000000	0.20817006
546.00000000	0.40035659
547.00000000	0.34860665
548.00000000	0.27439007
549.00000000	0.22857956
550.00000000	0.18467158
551.00000000	0.16627144
552.00000000	0.16591213
553.00000000	0.17054046
554.00000000	0.17351909
555.00000000	0.17823423
556.00000000	0.17833735
557.00000000	0.17491917
558.00000000	0.17573956
559.00000000	0.18746736
560.00000000	0.18876112
561.00000000	0.18463979
562.00000000	0.18905365
563.00000000	0.19005925
564.00000000	0.20333986
565.00000000	0.22215230
566.00000000	0.26164995
567.00000000	0.32749938
568.00000000	0.40918364
569.00000000	0.60916032
570.00000000	0.60656792
571.00000000	0.50733151
572.00000000	0.41840078
573.00000000	0.33849004
574.00000000	0.28966355
575.00000000	0.26465162
576.00000000	0.26978764
577.00000000	0.29055376
578.00000000	0.29032414
579.00000000	0.31167347
580.00000000	0.31155471
581.00000000	0.32310537
582.00000000	0.34433005
583.00000000	0.36937916
584.00000000	0.42533874
585.00000000	0.49878404
586.00000000	0.59158243
587.00000000	0.61165785
588.00000000	0.46574897
589.00000000	0.26119845
590.00000000	0.15795695
591.00000000	0.12411865
592.00000000	0.13639466
593.00000000	0.19129212
594.00000000	0.25873760
595.00000000	0.31991950
596.00000000	0.38999405
597.00000000	0.45359980
598.00000000	0.50849255
599.00000000	0.54382883
600.00000000	0.58448129
601.00000000	0.60556972
602.00000000	0.62780236
603.00000000	0.64598819
604.00000000	0.64999446
605.00000000	0.64827527
606.00000000	0.64490049
607.00000000	0.63382253
608.00000000	0.62577349
609.00000000	0.61151587
610.00000000	0.60579059
611.00000000	0.58673844
612.00000000	0.57901002
613.00000000	0.57644285
614.00000000	0.57427755
615.00000000	0.57495984
616.00000000	0.62635434
617.00000000	0.60858535
618.00000000	0.57387736
619.00000000	0.54984328
620.00000000	0.52981362
621.00000000	0.49932351
622.00000000	0.48778614
623.00000000	0.47695041
624.00000000	0.46762174
625.00000000	0.46577303
626.00000000	0.46750600
627.00000000	0.45084086
628.00000000	0.45062420
629.00000000	0.43958290
630.00000000	0.43871221
631.00000000	0.43411634
632.00000000	0.42052772
633.00000000	0.40410767
634.00000000	0.40242129
635.00000000	0.39726542
636.00000000	0.39562210
637.00000000	0.39227525
638.00000000	0.39322046
639.00000000	0.38160756
640.00000000	0.37886881
641.00000000	0.37348400
642.00000000	0.36142163
643.00000000	0.35812305
644.00000000	0.35416018
645.00000000	0.34557133
646.00000000	0.34930727
647.00000000	0.35496039
648.00000000	0.34291669
649.00000000	0.33789876
650.00000000	0.31723845
651.00000000	0.30643787
652.00000000	0.30480010
653.00000000	0.29909097
654.00000000	0.30544118
655.00000000	0.31721002
656.00000000	0.33501500
657.00000000	0.32487098
658.00000000	0.32674526
659.00000000	0.30702108
660.00000000	0.31501192
661.00000000	0.31552751
662.00000000	0.28411036
663.00000000	0.29445910
664.00000000	0.27470985
665.00000000	0.25892079
666.00000000	0.26262443
667.00000000	0.27114011
668.00000000	0.27698331
669.00000000	0.28213683
670.00000000	0.30304509
671.00000000	0.30620876
672.00000000	0.30737938
673.00000000	0.30214260
674.00000000	0.29409003
675.00000000	0.29340942
676.00000000	0.27347615
677.00000000	0.26612437
678.00000000	0.25408840
679.00000000	0.24588325
680.00000000	0.22987752
681.00000000	0.22274745
682.00000000	0.20526309
683.00000000	0.21042316
684.00000000	0.19260186
685.00000000	0.18437871
686.00000000	0.17071272
687.00000000	0.16655943
688.00000000	0.15179380
689.00000000	0.15124171
690.00000000	0.15252605
691.00000000	0.14560390
692.00000000	0.14128575
693.00000000	0.13718780
694.00000000	0.13776412
695.00000000	0.13475235
696.00000000	0.13363488
697.00000000	0.12619832
698.00000000	0.12330161
699.00000000	0.12338606
700.00000000	0.12083924
701.00000000	0.12137367
702.00000000	0.12404362
703.00000000	0.11805541
704.00000000	0.11274848
705.00000000	0.11286826
706.00000000	0.11150670
707.00000000	0.11309451
708.00000000	0.10644773
709.00000000	0.10980451
710.00000000	0.10598395
711.00000000	0.10627514
712.00000000	0.10912340
713.00000000	0.10568823
714.00000000	0.10332275
715.00000000	0.10941374
716.00000000	0.10536727
717.00000000	0.10390663
718.00000000	0.09875514
719.00000000	0.09506091
720.00000000	0.10191847
721.00000000	0.10572961
722.00000000	0.10221924
723.00000000	0.10083835
724.00000000	0.10185791
725.00000000	0.09710863
726.00000000	0.10118992
727.00000000	0.09303675
728.00000000	0.09590570
729.00000000	0.09319959
730.00000000	0.09686101
731.00000000	0.09997690
732.00000000	0.09708524
733.00000000	0.09846362
734.00000000	0.09555278
735.00000000	0.09261840
736.00000000	0.09486359
737.00000000	0.09784761
738.00000000	0.09834519
739.00000000	0.09561300
740.00000000	0.09499094
741.00000000	0.09834906
742.00000000	0.09728290
743.00000000	0.09472801
744.00000000	0.09514300
745.00000000	0.09412293
746.00000000	0.09139108
747.00000000	0.08998798
748.00000000	0.09225942
749.00000000	0.09026486
750.00000000	0.08542861
751.00000000	0.09657554
752.00000000	0.09423244
753.00000000	0.07562203
754.00000000	0.09556456
755.00000000	0.10416821
756.00000000	0.11062541
757.00000000	0.09983812
758.00000000	0.10063480
759.00000000	0.09729350
760.00000000	0.10613282
761.00000000	0.09331700
762.00000000	0.09408189
763.00000000	0.10104122
764.00000000	0.09566061
765.00000000	0.08749449
766.00000000	0.14852684
767.00000000	0.17103486
768.00000000	0.12697229
769.00000000	0.13858653
770.00000000	0.17354853
771.00000000	0.12841862
772.00000000	0.11112418
773.00000000	0.09832753
774.00000000	0.09688136
775.00000000	0.09134364
776.00000000	0.07962224
777.00000000	0.06727911
778.00000000	0.07713700
779.00000000	0.07322476
780.00000000	0.06425523
781.00000000	0.07834480
782.00000000	0.08278827
783.00000000	0.07961518
784.00000000	0.08018947
785.00000000	0.07827701
786.00000000	0.07045018
787.00000000	0.07026750
788.00000000	0.06473970
789.00000000	0.07111262
790.00000000	0.07397754
791.00000000	0.06289721
792.00000000	0.07263028
793.00000000	0.07330382
794.00000000	0.06454003
795.00000000	0.06646948
796.00000000	0.06832088
797.00000000	0.06918990
798.00000000	0.06986748
799.00000000	0.07444148
800.00000000	0.07146706
801.00000000	0.07435889
802.00000000	0.06670028
803.00000000	0.06260485
804.00000000	0.07297849
805.00000000	0.07122297
806.00000000	0.06706665
807.00000000	0.06931640
808.00000000	0.07006883
809.00000000	0.07561261
810.00000000	0.09556910
811.00000000	0.07773703
812.00000000	0.08519596
813.00000000	0.08418885
814.00000000	0.11298533
815.00000000	0.13510443
816.00000000	0.15414632
817.00000000	0.30356421
818.00000000	0.63606318
819.00000000	0.83182804
820.00000000	0.96888177
821.00000000	1.00000000
822.00000000	0.80382537
823.00000000	0.65175351
824.00000000	0.50885438
825.00000000	0.40640704
826.00000000	0.29467038
827.00000000	0.26238102
828.00000000	0.22120843
829.00000000	0.18095532
830.00000000	0.15243168
831.00000000	0.14134967
832.00000000	0.13785781
833.00000000	0.11544383
834.00000000	0.11653287
835.00000000	0.10217517
836.00000000	0.09842341
837.00000000	0.09781766
838.00000000	0.10016699
839.00000000	0.08626162
840.00000000	0.07365103
841.00000000	0.06997850
842.00000000	0.07260656
843.00000000	0.06004408
844.00000000	0.07004696
845.00000000	0.05036265
846.00000000	0.06373056
847.00000000	0.07230764
848.00000000	0.07407056
849.00000000	0.05866284
850.00000000	0.05430769
851.00000000	0.06070063
852.00000000	0.05236932
853.00000000	0.04121179
854.00000000	0.05851094
855.00000000	0.06663013
856.00000000	0.04903828
857.00000000	0.06060592
858.00000000	0.06960623
859.00000000	0.05081852
860.00000000	0.05976130
861.00000000	0.05912527
862.00000000	0.05026677
863.00000000	0.04692176
864.00000000	0.06068095
865.00000000	0.07205666
866.00000000	0.06006090
867.00000000	0.06311354
868.00000000	0.06199557
869.00000000	0.06332768
870.00000000	0.06800396
871.00000000	0.05451964
872.00000000	0.05696334
873.00000000	0.06911134
874.00000000	0.05535720
875.00000000	0.03602278
876.00000000	0.05730634
877.00000000	0.04428243
878.00000000	0.04194555
879.00000000	0.05542987
880.00000000	0.04200947
881.00000000	0.05591720
882.00000000	0.02884611
883.00000000	0.04465890
884.00000000	0.01695818
885.00000000	0.06551973
886.00000000	0.03059373
887.00000000	0.04224901
888.00000000	0.05148399
889.00000000	0.06089408
890.00000000	0.06092015
891.00000000	0.05649822
892.00000000	0.03328167
893.00000000	0.04410580
894.00000000	0.04247459
895.00000000	0.03734766
896.00000000	0.02299248
897.00000000	0.06257373
898.00000000	0.05380724
899.00000000	0.01651829
900.00000000	0.06145559
