#LICA Lamps Spectra Database
#Website 1: https://guaix.fis.ucm.es/lamps_spectra
#Website 2: http://carlostapia.es/lamparas/lamps.html
#Latest update: 2017/12/15
#Tester: Carlos Eugenio Tapia Ayuga
#Correct for Electrical Dark: Yes (JAZA2310)
#Correct for Detector Non-linearity: Yes (JAZA2310)
#Correct for Flux: Yes
#Start wavelength (nm): 300
#End wavelength (nm): 900
#Steps (nm):	1
#Locus: D65 sRGB Gamma 1 CIE1931
#XYZ coordinates: 0.3205	0.2885	0.1097
#xyY coordinates: 0.4459	0.4014	0.2885
#sRGB: 138	60	19
#CCT Lindbloom (K):	2832
#CCT McCamy (K):	2833
#CCT Hernández-Andrés (K):	2769
#Melatonin: 0.361
#Chlorophyll a: 0.738
#Chlorophyll b: 0.574
#Beta Carotene: 0.737
#Manufacturer: Unknown
#Luminance manufacturer: Unknown
#Other data:
#Begin Processed Spectral Data
W	S
300.00000000	0.00268575
301.00000000	0.00000000
302.00000000	0.00000000
303.00000000	0.00000000
304.00000000	0.00277588
305.00000000	0.00515234
306.00000000	0.00000000
307.00000000	0.00279324
308.00000000	0.00000000
309.00000000	0.00000000
310.00000000	0.00553778
311.00000000	0.00350359
312.00000000	0.00000000
313.00000000	0.00000000
314.00000000	0.00000000
315.00000000	0.00010861
316.00000000	0.00594181
317.00000000	0.00000000
318.00000000	0.00133639
319.00000000	0.00494594
320.00000000	0.00000000
321.00000000	0.00000000
322.00000000	0.00000000
323.00000000	0.00000000
324.00000000	0.00566150
325.00000000	0.00000000
326.00000000	0.00517909
327.00000000	0.00000000
328.00000000	0.00147001
329.00000000	0.00212841
330.00000000	0.00000000
331.00000000	0.00000000
332.00000000	0.00000000
333.00000000	0.00000000
334.00000000	0.00000000
335.00000000	0.00000000
336.00000000	0.00525820
337.00000000	0.00000000
338.00000000	0.00272444
339.00000000	0.00258684
340.00000000	0.00000000
341.00000000	0.00089011
342.00000000	0.00092972
343.00000000	0.00000000
344.00000000	0.00000000
345.00000000	0.00511018
346.00000000	0.00000000
347.00000000	0.00118205
348.00000000	0.00000000
349.00000000	0.00101914
350.00000000	0.00261174
351.00000000	0.00093676
352.00000000	0.00127055
353.00000000	0.00024846
354.00000000	0.00216557
355.00000000	0.00141254
356.00000000	0.00095585
357.00000000	0.00220415
358.00000000	0.00096034
359.00000000	0.00316592
360.00000000	0.00472831
361.00000000	0.00463338
362.00000000	0.00557208
363.00000000	0.00167090
364.00000000	0.00476220
365.00000000	0.00944203
366.00000000	0.00805715
367.00000000	0.00961852
368.00000000	0.00544469
369.00000000	0.00643065
370.00000000	0.00996344
371.00000000	0.00665880
372.00000000	0.00884059
373.00000000	0.00565109
374.00000000	0.00498606
375.00000000	0.00615035
376.00000000	0.00579298
377.00000000	0.00658020
378.00000000	0.00387250
379.00000000	0.00000000
380.00000000	0.00000000
381.00000000	0.00000000
382.00000000	0.00070168
383.00000000	0.00171714
384.00000000	0.00361608
385.00000000	0.00457938
386.00000000	0.00326677
387.00000000	0.00428142
388.00000000	0.00586086
389.00000000	0.00716693
390.00000000	0.00655080
391.00000000	0.00815586
392.00000000	0.00965782
393.00000000	0.01094838
394.00000000	0.01331555
395.00000000	0.01423710
396.00000000	0.01557104
397.00000000	0.01964310
398.00000000	0.01725082
399.00000000	0.01765740
400.00000000	0.01917283
401.00000000	0.01976304
402.00000000	0.02080862
403.00000000	0.02372762
404.00000000	0.02702430
405.00000000	0.03205843
406.00000000	0.03269519
407.00000000	0.03144536
408.00000000	0.03489791
409.00000000	0.03716617
410.00000000	0.03969982
411.00000000	0.04432545
412.00000000	0.04333265
413.00000000	0.04823643
414.00000000	0.05555403
415.00000000	0.05540735
416.00000000	0.05534508
417.00000000	0.06485621
418.00000000	0.06596896
419.00000000	0.06985820
420.00000000	0.07476014
421.00000000	0.07625792
422.00000000	0.07162301
423.00000000	0.07409827
424.00000000	0.08603109
425.00000000	0.08821870
426.00000000	0.08494754
427.00000000	0.07935627
428.00000000	0.08155695
429.00000000	0.08513883
430.00000000	0.09002322
431.00000000	0.09210243
432.00000000	0.08567953
433.00000000	0.07927205
434.00000000	0.07554634
435.00000000	0.08406896
436.00000000	0.11685612
437.00000000	0.11488348
438.00000000	0.09079972
439.00000000	0.08555745
440.00000000	0.08215410
441.00000000	0.08517721
442.00000000	0.08684505
443.00000000	0.09326896
444.00000000	0.10196655
445.00000000	0.10596409
446.00000000	0.11340347
447.00000000	0.10004862
448.00000000	0.09324743
449.00000000	0.09603648
450.00000000	0.08977415
451.00000000	0.09200780
452.00000000	0.09567023
453.00000000	0.09967012
454.00000000	0.10028462
455.00000000	0.09742136
456.00000000	0.10417866
457.00000000	0.10862299
458.00000000	0.11525984
459.00000000	0.12494614
460.00000000	0.11774440
461.00000000	0.11369275
462.00000000	0.11818966
463.00000000	0.10857257
464.00000000	0.11179157
465.00000000	0.10741971
466.00000000	0.10342125
467.00000000	0.11155587
468.00000000	0.12168049
469.00000000	0.12472831
470.00000000	0.12477057
471.00000000	0.12038534
472.00000000	0.12401020
473.00000000	0.13125563
474.00000000	0.12956186
475.00000000	0.11367448
476.00000000	0.10554486
477.00000000	0.10788600
478.00000000	0.12024365
479.00000000	0.11925463
480.00000000	0.11927923
481.00000000	0.11566713
482.00000000	0.12118429
483.00000000	0.12231980
484.00000000	0.11311285
485.00000000	0.10541471
486.00000000	0.10396746
487.00000000	0.10119933
488.00000000	0.11525178
489.00000000	0.13052996
490.00000000	0.12565333
491.00000000	0.12046230
492.00000000	0.12468309
493.00000000	0.11746644
494.00000000	0.12080753
495.00000000	0.12029020
496.00000000	0.12318205
497.00000000	0.12651068
498.00000000	0.14095387
499.00000000	0.15360153
500.00000000	0.15211335
501.00000000	0.14355000
502.00000000	0.13853230
503.00000000	0.14262038
504.00000000	0.14783969
505.00000000	0.16227339
506.00000000	0.14591768
507.00000000	0.13925572
508.00000000	0.13693009
509.00000000	0.12568620
510.00000000	0.12097830
511.00000000	0.13117468
512.00000000	0.14440653
513.00000000	0.14643286
514.00000000	0.14039684
515.00000000	0.13841205
516.00000000	0.14944903
517.00000000	0.15099050
518.00000000	0.14742709
519.00000000	0.14968381
520.00000000	0.14518088
521.00000000	0.13882914
522.00000000	0.14454270
523.00000000	0.15188704
524.00000000	0.14917863
525.00000000	0.13753807
526.00000000	0.15388143
527.00000000	0.19241236
528.00000000	0.17950206
529.00000000	0.15772299
530.00000000	0.16180036
531.00000000	0.18311610
532.00000000	0.18476056
533.00000000	0.20981447
534.00000000	0.31219463
535.00000000	0.39875192
536.00000000	0.35299505
537.00000000	0.49928653
538.00000000	0.56425187
539.00000000	0.55822238
540.00000000	0.50535389
541.00000000	0.40859552
542.00000000	0.30353053
543.00000000	0.24868573
544.00000000	0.19180970
545.00000000	0.19033765
546.00000000	0.28643006
547.00000000	0.31918732
548.00000000	0.21683890
549.00000000	0.17589558
550.00000000	0.16782036
551.00000000	0.16432718
552.00000000	0.16016233
553.00000000	0.16306806
554.00000000	0.16869955
555.00000000	0.18387709
556.00000000	0.17376543
557.00000000	0.16834830
558.00000000	0.17287695
559.00000000	0.21125620
560.00000000	0.23929699
561.00000000	0.21184488
562.00000000	0.19134872
563.00000000	0.19780990
564.00000000	0.22349841
565.00000000	0.24438482
566.00000000	0.24630223
567.00000000	0.27373525
568.00000000	0.32147476
569.00000000	0.40324607
570.00000000	0.44262170
571.00000000	0.36931810
572.00000000	0.30168038
573.00000000	0.26198719
574.00000000	0.24742385
575.00000000	0.24753971
576.00000000	0.25442481
577.00000000	0.26950711
578.00000000	0.26420951
579.00000000	0.26589644
580.00000000	0.27170218
581.00000000	0.27714166
582.00000000	0.28263392
583.00000000	0.30059204
584.00000000	0.32245838
585.00000000	0.36318969
586.00000000	0.41390731
587.00000000	0.44552579
588.00000000	0.36761300
589.00000000	0.18849373
590.00000000	0.08981100
591.00000000	0.10036567
592.00000000	0.15313259
593.00000000	0.21061485
594.00000000	0.27037477
595.00000000	0.32251432
596.00000000	0.36683180
597.00000000	0.40715654
598.00000000	0.43197036
599.00000000	0.45482165
600.00000000	0.47241321
601.00000000	0.48161495
602.00000000	0.48827231
603.00000000	0.48643482
604.00000000	0.47661368
605.00000000	0.47513672
606.00000000	0.47513785
607.00000000	0.46892758
608.00000000	0.45892168
609.00000000	0.46728159
610.00000000	0.45807556
611.00000000	0.45398472
612.00000000	0.45116116
613.00000000	0.45836719
614.00000000	0.43647278
615.00000000	0.43029334
616.00000000	0.47160302
617.00000000	0.51393123
618.00000000	0.46580320
619.00000000	0.42453813
620.00000000	0.40222928
621.00000000	0.38497682
622.00000000	0.38159736
623.00000000	0.37858414
624.00000000	0.37303789
625.00000000	0.37473410
626.00000000	0.40246396
627.00000000	0.41858652
628.00000000	0.39465731
629.00000000	0.39357917
630.00000000	0.39500151
631.00000000	0.39723955
632.00000000	0.37834008
633.00000000	0.36632622
634.00000000	0.37202947
635.00000000	0.38185418
636.00000000	0.38708288
637.00000000	0.39515411
638.00000000	0.40151005
639.00000000	0.40115757
640.00000000	0.38924834
641.00000000	0.38274950
642.00000000	0.36065440
643.00000000	0.35176625
644.00000000	0.37311271
645.00000000	0.37081832
646.00000000	0.38211152
647.00000000	0.38754131
648.00000000	0.37752377
649.00000000	0.36240758
650.00000000	0.35217272
651.00000000	0.32197719
652.00000000	0.30247546
653.00000000	0.29236840
654.00000000	0.29845771
655.00000000	0.31850626
656.00000000	0.33910358
657.00000000	0.33119077
658.00000000	0.33386396
659.00000000	0.31842776
660.00000000	0.29487715
661.00000000	0.29424284
662.00000000	0.28626572
663.00000000	0.28320024
664.00000000	0.27717351
665.00000000	0.27597472
666.00000000	0.27910083
667.00000000	0.29981737
668.00000000	0.29074405
669.00000000	0.28614445
670.00000000	0.28511470
671.00000000	0.28721677
672.00000000	0.29653682
673.00000000	0.28839821
674.00000000	0.28157906
675.00000000	0.28280153
676.00000000	0.28053603
677.00000000	0.28293301
678.00000000	0.27242509
679.00000000	0.25971006
680.00000000	0.24760902
681.00000000	0.24019669
682.00000000	0.23599571
683.00000000	0.25010665
684.00000000	0.27033833
685.00000000	0.25413787
686.00000000	0.25843348
687.00000000	0.22287523
688.00000000	0.20861976
689.00000000	0.20044073
690.00000000	0.20425688
691.00000000	0.19744191
692.00000000	0.18914692
693.00000000	0.18905964
694.00000000	0.18548888
695.00000000	0.19350336
696.00000000	0.20260640
697.00000000	0.18878955
698.00000000	0.17937416
699.00000000	0.18271718
700.00000000	0.18874147
701.00000000	0.18117837
702.00000000	0.18046700
703.00000000	0.17302057
704.00000000	0.16740919
705.00000000	0.16578004
706.00000000	0.15773096
707.00000000	0.15213264
708.00000000	0.15044316
709.00000000	0.15031077
710.00000000	0.14888475
711.00000000	0.14680901
712.00000000	0.14374160
713.00000000	0.14601200
714.00000000	0.14717915
715.00000000	0.16380699
716.00000000	0.15705898
717.00000000	0.14522692
718.00000000	0.13926388
719.00000000	0.13706300
720.00000000	0.13826445
721.00000000	0.15203454
722.00000000	0.14109831
723.00000000	0.13993443
724.00000000	0.13552255
725.00000000	0.13146050
726.00000000	0.12978664
727.00000000	0.13118826
728.00000000	0.12484815
729.00000000	0.12886294
730.00000000	0.12304159
731.00000000	0.12518674
732.00000000	0.11956801
733.00000000	0.12470361
734.00000000	0.12148522
735.00000000	0.11856500
736.00000000	0.11413934
737.00000000	0.11383362
738.00000000	0.12786647
739.00000000	0.11860042
740.00000000	0.11895932
741.00000000	0.12533444
742.00000000	0.13058161
743.00000000	0.12182554
744.00000000	0.11569867
745.00000000	0.11081826
746.00000000	0.11320421
747.00000000	0.11225234
748.00000000	0.10966459
749.00000000	0.11234442
750.00000000	0.10929925
751.00000000	0.10717666
752.00000000	0.11561926
753.00000000	0.11188466
754.00000000	0.12095135
755.00000000	0.13704136
756.00000000	0.14448554
757.00000000	0.13332412
758.00000000	0.11748380
759.00000000	0.11287644
760.00000000	0.11634860
761.00000000	0.10973308
762.00000000	0.11410157
763.00000000	0.11261196
764.00000000	0.11396101
765.00000000	0.12229887
766.00000000	0.14934828
767.00000000	0.19347897
768.00000000	0.16488432
769.00000000	0.12911058
770.00000000	0.13780224
771.00000000	0.13244432
772.00000000	0.12335486
773.00000000	0.10989661
774.00000000	0.10533693
775.00000000	0.10265475
776.00000000	0.09691342
777.00000000	0.09610201
778.00000000	0.09389429
779.00000000	0.09770595
780.00000000	0.09882696
781.00000000	0.10562591
782.00000000	0.10870445
783.00000000	0.10548463
784.00000000	0.09284688
785.00000000	0.09102511
786.00000000	0.08730286
787.00000000	0.09042836
788.00000000	0.08883943
789.00000000	0.08663640
790.00000000	0.08409377
791.00000000	0.09159531
792.00000000	0.09811569
793.00000000	0.08941106
794.00000000	0.09072439
795.00000000	0.08950273
796.00000000	0.08977517
797.00000000	0.09076859
798.00000000	0.08733635
799.00000000	0.08762206
800.00000000	0.08987847
801.00000000	0.08739351
802.00000000	0.08907258
803.00000000	0.08991492
804.00000000	0.09010335
805.00000000	0.08948099
806.00000000	0.08983111
807.00000000	0.08535135
808.00000000	0.08623371
809.00000000	0.08841214
810.00000000	0.09180804
811.00000000	0.09380620
812.00000000	0.09957161
813.00000000	0.09635588
814.00000000	0.10292015
815.00000000	0.11507090
816.00000000	0.14434661
817.00000000	0.22708305
818.00000000	0.48731411
819.00000000	0.82273435
820.00000000	1.00000000
821.00000000	0.95937301
822.00000000	0.76643821
823.00000000	0.56215112
824.00000000	0.39756875
825.00000000	0.30971293
826.00000000	0.25794484
827.00000000	0.22065944
828.00000000	0.19268716
829.00000000	0.17062727
830.00000000	0.15875305
831.00000000	0.14564891
832.00000000	0.14531134
833.00000000	0.14656342
834.00000000	0.12583595
835.00000000	0.12426467
836.00000000	0.10827685
837.00000000	0.10060525
838.00000000	0.09777863
839.00000000	0.10279756
840.00000000	0.09816795
841.00000000	0.07946263
842.00000000	0.08658108
843.00000000	0.09108421
844.00000000	0.08000599
845.00000000	0.08491559
846.00000000	0.08303196
847.00000000	0.08448727
848.00000000	0.07995913
849.00000000	0.07672308
850.00000000	0.08157950
851.00000000	0.07800650
852.00000000	0.07321133
853.00000000	0.07935627
854.00000000	0.08229598
855.00000000	0.08088987
856.00000000	0.07715946
857.00000000	0.07218576
858.00000000	0.07343498
859.00000000	0.08682106
860.00000000	0.06991413
861.00000000	0.07512129
862.00000000	0.07279271
863.00000000	0.07265460
864.00000000	0.07493622
865.00000000	0.05544379
866.00000000	0.08247186
867.00000000	0.07216708
868.00000000	0.07467654
869.00000000	0.07358432
870.00000000	0.06864123
871.00000000	0.06666869
872.00000000	0.06450915
873.00000000	0.06648455
874.00000000	0.06539008
875.00000000	0.06968783
876.00000000	0.06052927
877.00000000	0.06342938
878.00000000	0.07106852
879.00000000	0.06640840
880.00000000	0.05420947
881.00000000	0.06188700
882.00000000	0.06288235
883.00000000	0.06295554
884.00000000	0.05258951
885.00000000	0.06457754
886.00000000	0.05112317
887.00000000	0.05507662
888.00000000	0.06055887
889.00000000	0.07348806
890.00000000	0.05958087
891.00000000	0.06507425
892.00000000	0.05796611
893.00000000	0.05431992
894.00000000	0.05083858
895.00000000	0.05580208
896.00000000	0.05659552
897.00000000	0.07589310
898.00000000	0.05802695
899.00000000	0.05447048
900.00000000	0.05236341
