#LICA Lamps Spectra Database
#Website 1: https://guaix.fis.ucm.es/lamps_spectra
#Website 2: http://carlostapia.es/lamparas/lamps.html
#Latest update: 2017/12/15
#Tester: Carlos Eugenio Tapia Ayuga
#Correct for Electrical Dark: Yes (JAZA2310)
#Correct for Detector Non-linearity: Yes (JAZA2310)
#Correct for Flux: Yes
#Start wavelength (nm): 300
#End wavelength (nm): 900
#Steps (nm):	1
#Locus: D65 sRGB Gamma 1 CIE1931
#XYZ coordinates: 0.2352	0.2642	0.2004
#xyY coordinates: 0.3361	0.3776	0.2642
#sRGB: 65	70	44
#CCT Lindbloom (K):	5381
#CCT McCamy (K):	5377
#CCT Hernández-Andrés (K):	5351
#Melatonin: 0.726
#Chlorophyll a: 0.404
#Chlorophyll b: 0.736
#Beta Carotene: 0.407
#Manufacturer: Unknown
#Luminance manufacturer: Unknown
#Other data:
#Begin Processed Spectral Data
W	S
300.00000000	0.00000000
301.00000000	0.00000000
302.00000000	0.00000000
303.00000000	0.00000000
304.00000000	0.00000000
305.00000000	0.00423509
306.00000000	0.00000000
307.00000000	0.00000000
308.00000000	0.00000000
309.00000000	0.00000000
310.00000000	0.00000000
311.00000000	0.00000000
312.00000000	0.00000000
313.00000000	0.00000000
314.00000000	0.00703940
315.00000000	0.01764178
316.00000000	0.00000000
317.00000000	0.00000000
318.00000000	0.00000000
319.00000000	0.00000000
320.00000000	0.00000000
321.00000000	0.00000000
322.00000000	0.00000000
323.00000000	0.00000000
324.00000000	0.00806719
325.00000000	0.00000000
326.00000000	0.00000000
327.00000000	0.00000000
328.00000000	0.00212458
329.00000000	0.01096359
330.00000000	0.00038914
331.00000000	0.00000000
332.00000000	0.00000000
333.00000000	0.00000000
334.00000000	0.00000000
335.00000000	0.00000000
336.00000000	0.00000000
337.00000000	0.00000000
338.00000000	0.00000000
339.00000000	0.00000000
340.00000000	0.00000000
341.00000000	0.00000000
342.00000000	0.00000000
343.00000000	0.00172644
344.00000000	0.00633752
345.00000000	0.00713565
346.00000000	0.00000000
347.00000000	0.00185569
348.00000000	0.00735653
349.00000000	0.00000000
350.00000000	0.00637191
351.00000000	0.01164563
352.00000000	0.02049272
353.00000000	0.03789723
354.00000000	0.03658094
355.00000000	0.02953646
356.00000000	0.02266185
357.00000000	0.02619875
358.00000000	0.02667859
359.00000000	0.03310013
360.00000000	0.04219187
361.00000000	0.04427745
362.00000000	0.03522032
363.00000000	0.04775964
364.00000000	0.06102877
365.00000000	0.09182405
366.00000000	0.10441023
367.00000000	0.10777563
368.00000000	0.10802744
369.00000000	0.10494893
370.00000000	0.10151728
371.00000000	0.09558783
372.00000000	0.09233714
373.00000000	0.09112863
374.00000000	0.09811518
375.00000000	0.09225797
376.00000000	0.09131466
377.00000000	0.08625559
378.00000000	0.04838259
379.00000000	0.02949537
380.00000000	0.02063905
381.00000000	0.02231448
382.00000000	0.02035331
383.00000000	0.02353269
384.00000000	0.03235692
385.00000000	0.04194190
386.00000000	0.03911982
387.00000000	0.04344839
388.00000000	0.05016027
389.00000000	0.06280369
390.00000000	0.06183106
391.00000000	0.05810744
392.00000000	0.06099300
393.00000000	0.06404682
394.00000000	0.06019648
395.00000000	0.07030286
396.00000000	0.07568506
397.00000000	0.07708422
398.00000000	0.08194918
399.00000000	0.08297304
400.00000000	0.10436683
401.00000000	0.09040528
402.00000000	0.09553844
403.00000000	0.11148079
404.00000000	0.11951520
405.00000000	0.15539702
406.00000000	0.15685019
407.00000000	0.13505894
408.00000000	0.14092169
409.00000000	0.14808111
410.00000000	0.17910812
411.00000000	0.21516051
412.00000000	0.20016217
413.00000000	0.20960843
414.00000000	0.22768044
415.00000000	0.20317005
416.00000000	0.18309463
417.00000000	0.22050809
418.00000000	0.23277898
419.00000000	0.24604903
420.00000000	0.28250418
421.00000000	0.29060391
422.00000000	0.32536401
423.00000000	0.31222436
424.00000000	0.24834003
425.00000000	0.21549564
426.00000000	0.19299974
427.00000000	0.18272511
428.00000000	0.16995337
429.00000000	0.16244519
430.00000000	0.16294951
431.00000000	0.16870816
432.00000000	0.16541569
433.00000000	0.14488489
434.00000000	0.13238873
435.00000000	0.16591308
436.00000000	0.24015351
437.00000000	0.22084922
438.00000000	0.18485408
439.00000000	0.18135088
440.00000000	0.17490558
441.00000000	0.16916447
442.00000000	0.15814848
443.00000000	0.14820321
444.00000000	0.14192501
445.00000000	0.16201220
446.00000000	0.16203390
447.00000000	0.15666046
448.00000000	0.15723840
449.00000000	0.15879636
450.00000000	0.15555005
451.00000000	0.16019182
452.00000000	0.17658447
453.00000000	0.17645153
454.00000000	0.18320588
455.00000000	0.17836908
456.00000000	0.19794595
457.00000000	0.19927979
458.00000000	0.18794759
459.00000000	0.19514418
460.00000000	0.20095453
461.00000000	0.21684402
462.00000000	0.22661503
463.00000000	0.21295560
464.00000000	0.21041279
465.00000000	0.21142766
466.00000000	0.18991985
467.00000000	0.18576485
468.00000000	0.20875698
469.00000000	0.19575351
470.00000000	0.18498933
471.00000000	0.17020656
472.00000000	0.19215845
473.00000000	0.20255079
474.00000000	0.20201555
475.00000000	0.19279294
476.00000000	0.19078468
477.00000000	0.17637236
478.00000000	0.19862891
479.00000000	0.19644178
480.00000000	0.18952332
481.00000000	0.18562636
482.00000000	0.18106099
483.00000000	0.18369289
484.00000000	0.18035287
485.00000000	0.17210796
486.00000000	0.15857132
487.00000000	0.15643058
488.00000000	0.17134375
489.00000000	0.19337965
490.00000000	0.18158261
491.00000000	0.17218528
492.00000000	0.17367745
493.00000000	0.17879538
494.00000000	0.18964057
495.00000000	0.17893294
496.00000000	0.19047171
497.00000000	0.17605061
498.00000000	0.18718777
499.00000000	0.17825298
500.00000000	0.18781211
501.00000000	0.17463946
502.00000000	0.18413073
503.00000000	0.20619709
504.00000000	0.23043674
505.00000000	0.24807483
506.00000000	0.23107262
507.00000000	0.24068968
508.00000000	0.22722829
509.00000000	0.20131366
510.00000000	0.17582327
511.00000000	0.18407418
512.00000000	0.20583819
513.00000000	0.21723362
514.00000000	0.20148562
515.00000000	0.19148818
516.00000000	0.18855531
517.00000000	0.19381703
518.00000000	0.20718657
519.00000000	0.21878627
520.00000000	0.18835589
521.00000000	0.18328043
522.00000000	0.19388304
523.00000000	0.20034912
524.00000000	0.19507240
525.00000000	0.17300326
526.00000000	0.17791900
527.00000000	0.17543436
528.00000000	0.18442570
529.00000000	0.18740473
530.00000000	0.21646157
531.00000000	0.25265429
532.00000000	0.23250893
533.00000000	0.24669622
534.00000000	0.30999522
535.00000000	0.67409798
536.00000000	1.00000000
537.00000000	0.94283310
538.00000000	0.85983882
539.00000000	0.67452359
540.00000000	0.51105499
541.00000000	0.40552489
542.00000000	0.30846173
543.00000000	0.25944765
544.00000000	0.21243305
545.00000000	0.22349636
546.00000000	0.30776146
547.00000000	0.30743071
548.00000000	0.26441186
549.00000000	0.22577281
550.00000000	0.19716259
551.00000000	0.18433984
552.00000000	0.17712479
553.00000000	0.18234866
554.00000000	0.17854103
555.00000000	0.19840203
556.00000000	0.19683069
557.00000000	0.20160864
558.00000000	0.18845606
559.00000000	0.18517606
560.00000000	0.17494897
561.00000000	0.18227157
562.00000000	0.18667100
563.00000000	0.22366369
564.00000000	0.25543090
565.00000000	0.25951643
566.00000000	0.25195863
567.00000000	0.24014128
568.00000000	0.28420893
569.00000000	0.26035218
570.00000000	0.25286640
571.00000000	0.23601352
572.00000000	0.22397090
573.00000000	0.20633119
574.00000000	0.21009428
575.00000000	0.21300546
576.00000000	0.23814549
577.00000000	0.26526423
578.00000000	0.22271300
579.00000000	0.23379569
580.00000000	0.21392638
581.00000000	0.20664509
582.00000000	0.19385858
583.00000000	0.18953763
584.00000000	0.18916487
585.00000000	0.19293627
586.00000000	0.22437827
587.00000000	0.21720823
588.00000000	0.22146940
589.00000000	0.24066845
590.00000000	0.25710149
591.00000000	0.22409161
592.00000000	0.23534810
593.00000000	0.22812359
594.00000000	0.22475911
595.00000000	0.25506115
596.00000000	0.23543973
597.00000000	0.27570205
598.00000000	0.33067581
599.00000000	0.32893576
600.00000000	0.28022195
601.00000000	0.27737194
602.00000000	0.23632719
603.00000000	0.22327663
604.00000000	0.21139534
605.00000000	0.20016147
606.00000000	0.20530248
607.00000000	0.20385278
608.00000000	0.21525814
609.00000000	0.25670104
610.00000000	0.23614369
611.00000000	0.22968916
612.00000000	0.21650496
613.00000000	0.22187863
614.00000000	0.22959960
615.00000000	0.20725673
616.00000000	0.22727122
617.00000000	0.23645390
618.00000000	0.21815131
619.00000000	0.21437368
620.00000000	0.20345556
621.00000000	0.19169960
622.00000000	0.19443698
623.00000000	0.18739873
624.00000000	0.18292383
625.00000000	0.18342076
626.00000000	0.24665883
627.00000000	0.21560643
628.00000000	0.20402381
629.00000000	0.18328528
630.00000000	0.17997873
631.00000000	0.19650040
632.00000000	0.16903752
633.00000000	0.17115426
634.00000000	0.16437382
635.00000000	0.18014168
636.00000000	0.17049161
637.00000000	0.17204956
638.00000000	0.18244306
639.00000000	0.16918547
640.00000000	0.16415156
641.00000000	0.15968935
642.00000000	0.16672598
643.00000000	0.17598345
644.00000000	0.16921640
645.00000000	0.15861910
646.00000000	0.18913118
647.00000000	0.18119993
648.00000000	0.17184830
649.00000000	0.16930526
650.00000000	0.14628820
651.00000000	0.13553510
652.00000000	0.13673138
653.00000000	0.13652434
654.00000000	0.13363948
655.00000000	0.18241883
656.00000000	0.19648609
657.00000000	0.17580573
658.00000000	0.20124027
659.00000000	0.16543646
660.00000000	0.17212550
661.00000000	0.22279355
662.00000000	0.17457483
663.00000000	0.19107227
664.00000000	0.17022064
665.00000000	0.14951974
666.00000000	0.15719986
667.00000000	0.17159372
668.00000000	0.15832874
669.00000000	0.16734270
670.00000000	0.16812006
671.00000000	0.13945883
672.00000000	0.15551796
673.00000000	0.15801115
674.00000000	0.14689499
675.00000000	0.16116629
676.00000000	0.13400854
677.00000000	0.14405190
678.00000000	0.16923463
679.00000000	0.16448023
680.00000000	0.14200856
681.00000000	0.14058032
682.00000000	0.12687797
683.00000000	0.13798005
684.00000000	0.17399550
685.00000000	0.21130394
686.00000000	0.19171207
687.00000000	0.16070975
688.00000000	0.13376688
689.00000000	0.11749217
690.00000000	0.11648678
691.00000000	0.10852507
692.00000000	0.10239020
693.00000000	0.10559727
694.00000000	0.12531355
695.00000000	0.12858202
696.00000000	0.14066226
697.00000000	0.14670711
698.00000000	0.15170571
699.00000000	0.13438983
700.00000000	0.13144842
701.00000000	0.10653435
702.00000000	0.10360332
703.00000000	0.08893596
704.00000000	0.08303421
705.00000000	0.07610928
706.00000000	0.08257836
707.00000000	0.07336983
708.00000000	0.07261324
709.00000000	0.07332805
710.00000000	0.06064517
711.00000000	0.06639159
712.00000000	0.06960743
713.00000000	0.06961782
714.00000000	0.06904495
715.00000000	0.06986017
716.00000000	0.06089675
717.00000000	0.05652087
718.00000000	0.06278661
719.00000000	0.05378834
720.00000000	0.06358174
721.00000000	0.06623603
722.00000000	0.06604076
723.00000000	0.07642641
724.00000000	0.07421112
725.00000000	0.07135165
726.00000000	0.07200783
727.00000000	0.07112061
728.00000000	0.07139019
729.00000000	0.06148831
730.00000000	0.06786322
731.00000000	0.06078666
732.00000000	0.05763382
733.00000000	0.05142279
734.00000000	0.04731926
735.00000000	0.04870572
736.00000000	0.04515867
737.00000000	0.04880058
738.00000000	0.06430855
739.00000000	0.05728831
740.00000000	0.05731462
741.00000000	0.06335393
742.00000000	0.05879132
743.00000000	0.04851785
744.00000000	0.05787086
745.00000000	0.04839667
746.00000000	0.05233910
747.00000000	0.04562121
748.00000000	0.06112941
749.00000000	0.07129810
750.00000000	0.07330913
751.00000000	0.06380516
752.00000000	0.05332926
753.00000000	0.05591362
754.00000000	0.06437664
755.00000000	0.09781074
756.00000000	0.14942857
757.00000000	0.12642420
758.00000000	0.09042721
759.00000000	0.09772511
760.00000000	0.07212831
761.00000000	0.07248399
762.00000000	0.07114323
763.00000000	0.07535801
764.00000000	0.06966514
765.00000000	0.07338391
766.00000000	0.09424938
767.00000000	0.14387880
768.00000000	0.10733987
769.00000000	0.10428097
770.00000000	0.10668668
771.00000000	0.08722198
772.00000000	0.10133541
773.00000000	0.08167083
774.00000000	0.09235722
775.00000000	0.06636551
776.00000000	0.06423123
777.00000000	0.05334473
778.00000000	0.05786740
779.00000000	0.04266433
780.00000000	0.05016397
781.00000000	0.04659106
782.00000000	0.08032914
783.00000000	0.06868882
784.00000000	0.06353696
785.00000000	0.05290273
786.00000000	0.04011645
787.00000000	0.04855247
788.00000000	0.04133511
789.00000000	0.03920360
790.00000000	0.03260758
791.00000000	0.04078187
792.00000000	0.04662845
793.00000000	0.07375366
794.00000000	0.06824936
795.00000000	0.05885849
796.00000000	0.05578898
797.00000000	0.04834012
798.00000000	0.04875627
799.00000000	0.03898434
800.00000000	0.02574613
801.00000000	0.03989833
802.00000000	0.07387714
803.00000000	0.08713958
804.00000000	0.06436233
805.00000000	0.05784801
806.00000000	0.03795932
807.00000000	0.03850887
808.00000000	0.05677545
809.00000000	0.05959546
810.00000000	0.06927207
811.00000000	0.05565973
812.00000000	0.04729387
813.00000000	0.05282887
814.00000000	0.02228148
815.00000000	0.02591093
816.00000000	0.02625345
817.00000000	0.03546937
818.00000000	0.02597394
819.00000000	0.02848005
820.00000000	0.03372423
821.00000000	0.02320656
822.00000000	0.04674847
823.00000000	0.03043984
824.00000000	0.03855596
825.00000000	0.03002461
826.00000000	0.03118465
827.00000000	0.05071698
828.00000000	0.01723371
829.00000000	0.02224524
830.00000000	0.03351489
831.00000000	0.01997709
832.00000000	0.02563281
833.00000000	0.03863212
834.00000000	0.04016422
835.00000000	0.04129010
836.00000000	0.02115744
837.00000000	0.01232767
838.00000000	0.02356361
839.00000000	0.01723233
840.00000000	0.03763734
841.00000000	0.02594693
842.00000000	0.01240637
843.00000000	0.02691009
844.00000000	0.02278787
845.00000000	0.01469183
846.00000000	0.00954782
847.00000000	0.02308630
848.00000000	0.01620385
849.00000000	0.03214020
850.00000000	0.04570799
851.00000000	0.10040064
852.00000000	0.35551002
853.00000000	0.58720790
854.00000000	0.57310255
855.00000000	0.43508535
856.00000000	0.30982096
857.00000000	0.21219394
858.00000000	0.14878138
859.00000000	0.09778374
860.00000000	0.08260744
861.00000000	0.06404520
862.00000000	0.07919449
863.00000000	0.07274411
864.00000000	0.04536040
865.00000000	0.04250138
866.00000000	0.02588392
867.00000000	0.03744577
868.00000000	0.05753850
869.00000000	0.03597991
870.00000000	0.04739243
871.00000000	0.03925461
872.00000000	0.04878881
873.00000000	0.01531755
874.00000000	0.03614102
875.00000000	0.04009244
876.00000000	0.08322901
877.00000000	0.13950153
878.00000000	0.08484120
879.00000000	0.06120696
880.00000000	0.03305996
881.00000000	0.02777055
882.00000000	0.02368710
883.00000000	0.01050244
884.00000000	0.01864880
885.00000000	0.00754072
886.00000000	0.01333837
887.00000000	0.00000000
888.00000000	0.01460112
889.00000000	0.06113287
890.00000000	0.01878382
891.00000000	0.03167835
892.00000000	0.03332309
893.00000000	0.04030871
894.00000000	0.24764415
895.00000000	0.46614029
896.00000000	0.48070263
897.00000000	0.36199018
898.00000000	0.18893383
899.00000000	0.13621875
900.00000000	0.10509942
