#LICA Lamps Spectra Database
#Website 1: https://guaix.fis.ucm.es/lamps_spectra
#Website 2: http://carlostapia.es/lamparas/lamps.html
#Latest update: 2018/04/18
#Tester: Carlos Eugenio Tapia Ayuga
#Correct for Electrical Dark: Yes (JAZA2310)
#Correct for Detector Non-linearity: Yes (JAZA2310)
#Correct for Flux: Yes
#Start wavelength (nm): 300
#End wavelength (nm): 900
#Steps (nm):	1
#Locus: D65 sRGB Gamma 1 CIE1931
#XYZ coordinates: 0.5343	0.5406	0.4208
#xyY coordinates: 0.3572	0.3614	0.5406
#sRGB: 176	131	93
#CCT Lindbloom (K):	4606
#CCT McCamy (K):	4613
#CCT Hernández-Andrés (K):	4619
#Melatonin: 0.553
#Chlorophyll a: 0.072
#Chlorophyll b: 0.813
#Beta Carotene: 0.073
#Manufacturer: alverlamp
#Luminance manufacturer: 950lm
#Other data: Projector lamp 4000K. 10W
#Begin Processed Spectral Data
W	S
300.00000000	0.00000000
301.00000000	0.00000000
302.00000000	0.00000000
303.00000000	0.00000000
304.00000000	0.00000000
305.00000000	0.00000000
306.00000000	0.00000000
307.00000000	0.00000000
308.00000000	0.00000000
309.00000000	0.00001709
310.00000000	0.00000000
311.00000000	0.00000000
312.00000000	0.00000000
313.00000000	0.00000000
314.00000000	0.00000000
315.00000000	0.00007007
316.00000000	0.00000000
317.00000000	0.00000000
318.00000000	0.00000000
319.00000000	0.00003051
320.00000000	0.00000000
321.00000000	0.00019391
322.00000000	0.00000000
323.00000000	0.00000000
324.00000000	0.00000000
325.00000000	0.00000000
326.00000000	0.00000000
327.00000000	0.00000000
328.00000000	0.00002587
329.00000000	0.00000000
330.00000000	0.00000000
331.00000000	0.00000000
332.00000000	0.00000000
333.00000000	0.00000067
334.00000000	0.00000000
335.00000000	0.00000000
336.00000000	0.00000000
337.00000000	0.00000129
338.00000000	0.00000000
339.00000000	0.00000000
340.00000000	0.00000000
341.00000000	0.00000023
342.00000000	0.00011506
343.00000000	0.00000000
344.00000000	0.00012819
345.00000000	0.00000000
346.00000000	0.00000000
347.00000000	0.00000000
348.00000000	0.00000000
349.00000000	0.00000000
350.00000000	0.00000000
351.00000000	0.00000000
352.00000000	0.00000000
353.00000000	0.00000000
354.00000000	0.00021621
355.00000000	0.00000000
356.00000000	0.00000000
357.00000000	0.00000000
358.00000000	0.00000000
359.00000000	0.00000000
360.00000000	0.00000000
361.00000000	0.00000000
362.00000000	0.00000000
363.00000000	0.00000009
364.00000000	0.00043018
365.00000000	0.00000000
366.00000000	0.00000000
367.00000000	0.00000000
368.00000000	0.00000000
369.00000000	0.00000000
370.00000000	0.00015027
371.00000000	0.00042549
372.00000000	0.00054454
373.00000000	0.00035020
374.00000000	0.00061963
375.00000000	0.00022367
376.00000000	0.00000000
377.00000000	0.00002591
378.00000000	0.00022988
379.00000000	0.00000000
380.00000000	0.00023271
381.00000000	0.00030699
382.00000000	0.00033286
383.00000000	0.00000908
384.00000000	0.00019189
385.00000000	0.00057281
386.00000000	0.00019114
387.00000000	0.00069768
388.00000000	0.00053713
389.00000000	0.00085911
390.00000000	0.00053059
391.00000000	0.00048883
392.00000000	0.00045144
393.00000000	0.00065095
394.00000000	0.00038833
395.00000000	0.00101147
396.00000000	0.00122947
397.00000000	0.00118500
398.00000000	0.00101629
399.00000000	0.00168013
400.00000000	0.00174612
401.00000000	0.00248783
402.00000000	0.00288513
403.00000000	0.00346939
404.00000000	0.00468518
405.00000000	0.00482324
406.00000000	0.00522619
407.00000000	0.00668708
408.00000000	0.00880113
409.00000000	0.01053227
410.00000000	0.01298734
411.00000000	0.01645139
412.00000000	0.01994908
413.00000000	0.02358866
414.00000000	0.02915972
415.00000000	0.03518369
416.00000000	0.04249450
417.00000000	0.05169455
418.00000000	0.06087246
419.00000000	0.07265722
420.00000000	0.08663875
421.00000000	0.10085157
422.00000000	0.11818454
423.00000000	0.14034023
424.00000000	0.16289197
425.00000000	0.18484337
426.00000000	0.21322196
427.00000000	0.24183622
428.00000000	0.27294783
429.00000000	0.31026930
430.00000000	0.34114644
431.00000000	0.37975345
432.00000000	0.41722719
433.00000000	0.45332234
434.00000000	0.49270822
435.00000000	0.54064520
436.00000000	0.58755431
437.00000000	0.62891601
438.00000000	0.69301509
439.00000000	0.75491159
440.00000000	0.81050140
441.00000000	0.86784429
442.00000000	0.91272087
443.00000000	0.96024532
444.00000000	0.97831033
445.00000000	1.00000000
446.00000000	0.98419006
447.00000000	0.95226945
448.00000000	0.91821618
449.00000000	0.87482398
450.00000000	0.78038231
451.00000000	0.71265521
452.00000000	0.63753306
453.00000000	0.56862226
454.00000000	0.50304343
455.00000000	0.44812992
456.00000000	0.40159184
457.00000000	0.36114935
458.00000000	0.33080434
459.00000000	0.30634319
460.00000000	0.28334099
461.00000000	0.26126097
462.00000000	0.23961216
463.00000000	0.21697329
464.00000000	0.20073632
465.00000000	0.18055703
466.00000000	0.16422410
467.00000000	0.14973833
468.00000000	0.13741883
469.00000000	0.12335405
470.00000000	0.11292541
471.00000000	0.10476779
472.00000000	0.09611853
473.00000000	0.09041691
474.00000000	0.08520610
475.00000000	0.08003222
476.00000000	0.07531257
477.00000000	0.07224745
478.00000000	0.06753244
479.00000000	0.06629285
480.00000000	0.06376542
481.00000000	0.06262242
482.00000000	0.06040403
483.00000000	0.05965923
484.00000000	0.05912612
485.00000000	0.05940119
486.00000000	0.06054162
487.00000000	0.06197613
488.00000000	0.06365576
489.00000000	0.06674055
490.00000000	0.07058914
491.00000000	0.07482309
492.00000000	0.07981359
493.00000000	0.08565375
494.00000000	0.09242471
495.00000000	0.09937923
496.00000000	0.10775093
497.00000000	0.11794595
498.00000000	0.12745286
499.00000000	0.13758861
500.00000000	0.14857137
501.00000000	0.15986822
502.00000000	0.17268515
503.00000000	0.18680169
504.00000000	0.19716522
505.00000000	0.21047603
506.00000000	0.22412068
507.00000000	0.23790139
508.00000000	0.25124933
509.00000000	0.26617692
510.00000000	0.28122970
511.00000000	0.29558173
512.00000000	0.31106341
513.00000000	0.32480890
514.00000000	0.33745922
515.00000000	0.35278882
516.00000000	0.36405929
517.00000000	0.37489590
518.00000000	0.38609983
519.00000000	0.39712360
520.00000000	0.40919502
521.00000000	0.41742672
522.00000000	0.42916960
523.00000000	0.43996236
524.00000000	0.45194012
525.00000000	0.46004075
526.00000000	0.46991097
527.00000000	0.47842742
528.00000000	0.48752406
529.00000000	0.49362343
530.00000000	0.50194585
531.00000000	0.50842490
532.00000000	0.51567410
533.00000000	0.51858138
534.00000000	0.52449110
535.00000000	0.53376926
536.00000000	0.53787353
537.00000000	0.54220102
538.00000000	0.54626195
539.00000000	0.55408383
540.00000000	0.55655611
541.00000000	0.56710416
542.00000000	0.56935096
543.00000000	0.57569493
544.00000000	0.57503791
545.00000000	0.58288034
546.00000000	0.58475182
547.00000000	0.58759083
548.00000000	0.59591458
549.00000000	0.59595385
550.00000000	0.60218675
551.00000000	0.60765854
552.00000000	0.61136708
553.00000000	0.61583948
554.00000000	0.61962566
555.00000000	0.62336419
556.00000000	0.63148226
557.00000000	0.63523886
558.00000000	0.64167846
559.00000000	0.64487408
560.00000000	0.64969934
561.00000000	0.65434453
562.00000000	0.65332876
563.00000000	0.65291789
564.00000000	0.65441346
565.00000000	0.65775165
566.00000000	0.65911412
567.00000000	0.66122107
568.00000000	0.65966860
569.00000000	0.66204155
570.00000000	0.65863574
571.00000000	0.65869078
572.00000000	0.66021900
573.00000000	0.65968463
574.00000000	0.65809462
575.00000000	0.65497906
576.00000000	0.65517074
577.00000000	0.65562778
578.00000000	0.65217381
579.00000000	0.64855310
580.00000000	0.64311665
581.00000000	0.64245692
582.00000000	0.64024095
583.00000000	0.64370656
584.00000000	0.64489673
585.00000000	0.64498939
586.00000000	0.63950995
587.00000000	0.63709701
588.00000000	0.63306949
589.00000000	0.62530493
590.00000000	0.62158290
591.00000000	0.61801448
592.00000000	0.61186856
593.00000000	0.60675245
594.00000000	0.60058173
595.00000000	0.59820615
596.00000000	0.59230262
597.00000000	0.58691322
598.00000000	0.58276984
599.00000000	0.57617828
600.00000000	0.57209929
601.00000000	0.56477726
602.00000000	0.56056618
603.00000000	0.55558506
604.00000000	0.54816907
605.00000000	0.53583385
606.00000000	0.52870023
607.00000000	0.51743076
608.00000000	0.50832093
609.00000000	0.49997104
610.00000000	0.49142136
611.00000000	0.48603342
612.00000000	0.47712319
613.00000000	0.47019104
614.00000000	0.46365201
615.00000000	0.45990634
616.00000000	0.45555071
617.00000000	0.44973754
618.00000000	0.44735757
619.00000000	0.43789852
620.00000000	0.43137260
621.00000000	0.41903820
622.00000000	0.40895887
623.00000000	0.40169083
624.00000000	0.39129896
625.00000000	0.38416052
626.00000000	0.37760908
627.00000000	0.36887492
628.00000000	0.36171847
629.00000000	0.35232340
630.00000000	0.34356121
631.00000000	0.33574503
632.00000000	0.32880505
633.00000000	0.32042608
634.00000000	0.31474427
635.00000000	0.30629794
636.00000000	0.29885179
637.00000000	0.29285798
638.00000000	0.28555000
639.00000000	0.27837879
640.00000000	0.27087443
641.00000000	0.26614963
642.00000000	0.25985716
643.00000000	0.25261359
644.00000000	0.24837335
645.00000000	0.24126482
646.00000000	0.23533068
647.00000000	0.22992399
648.00000000	0.22607918
649.00000000	0.22136900
650.00000000	0.21535818
651.00000000	0.20853514
652.00000000	0.20360319
653.00000000	0.19740909
654.00000000	0.19317977
655.00000000	0.18764085
656.00000000	0.18216905
657.00000000	0.17695277
658.00000000	0.17302657
659.00000000	0.16927671
660.00000000	0.16424936
661.00000000	0.16060839
662.00000000	0.15593865
663.00000000	0.15172770
664.00000000	0.14667082
665.00000000	0.14319190
666.00000000	0.13902683
667.00000000	0.13578358
668.00000000	0.13251742
669.00000000	0.12888810
670.00000000	0.12562337
671.00000000	0.12366359
672.00000000	0.11915617
673.00000000	0.11542898
674.00000000	0.11132740
675.00000000	0.11011199
676.00000000	0.10609265
677.00000000	0.10426336
678.00000000	0.10015373
679.00000000	0.09749573
680.00000000	0.09437068
681.00000000	0.09127987
682.00000000	0.08910128
683.00000000	0.08682416
684.00000000	0.08368580
685.00000000	0.08169196
686.00000000	0.07857428
687.00000000	0.07651493
688.00000000	0.07469922
689.00000000	0.07196750
690.00000000	0.07023280
691.00000000	0.06894168
692.00000000	0.06635199
693.00000000	0.06429775
694.00000000	0.06244467
695.00000000	0.06011634
696.00000000	0.05849941
697.00000000	0.05718894
698.00000000	0.05572400
699.00000000	0.05404544
700.00000000	0.05331155
701.00000000	0.05163540
702.00000000	0.05038939
703.00000000	0.04827651
704.00000000	0.04696171
705.00000000	0.04545234
706.00000000	0.04354554
707.00000000	0.04262878
708.00000000	0.04056565
709.00000000	0.04025323
710.00000000	0.03987883
711.00000000	0.03791152
712.00000000	0.03679642
713.00000000	0.03574366
714.00000000	0.03423256
715.00000000	0.03369779
716.00000000	0.03258529
717.00000000	0.03141871
718.00000000	0.03040417
719.00000000	0.02976311
720.00000000	0.02857503
721.00000000	0.02758806
722.00000000	0.02730636
723.00000000	0.02593148
724.00000000	0.02580872
725.00000000	0.02506608
726.00000000	0.02367645
727.00000000	0.02367682
728.00000000	0.02253077
729.00000000	0.02181810
730.00000000	0.02126342
731.00000000	0.02056702
732.00000000	0.02028806
733.00000000	0.01917035
734.00000000	0.01847143
735.00000000	0.01815942
736.00000000	0.01731518
737.00000000	0.01755785
738.00000000	0.01615337
739.00000000	0.01590966
740.00000000	0.01561983
741.00000000	0.01485530
742.00000000	0.01505813
743.00000000	0.01395214
744.00000000	0.01356136
745.00000000	0.01234222
746.00000000	0.01259765
747.00000000	0.01126473
748.00000000	0.01175703
749.00000000	0.01136823
750.00000000	0.01088665
751.00000000	0.00992417
752.00000000	0.01016292
753.00000000	0.00916042
754.00000000	0.00934207
755.00000000	0.00939193
756.00000000	0.00947875
757.00000000	0.00840300
758.00000000	0.00814095
759.00000000	0.00828764
760.00000000	0.00800258
761.00000000	0.00778806
762.00000000	0.00759450
763.00000000	0.00728093
764.00000000	0.00695316
765.00000000	0.00682068
766.00000000	0.00570996
767.00000000	0.00605874
768.00000000	0.00635343
769.00000000	0.00463797
770.00000000	0.00543330
771.00000000	0.00577178
772.00000000	0.00477902
773.00000000	0.00539355
774.00000000	0.00422266
775.00000000	0.00440454
776.00000000	0.00422305
777.00000000	0.00427961
778.00000000	0.00392239
779.00000000	0.00421908
780.00000000	0.00286751
781.00000000	0.00368862
782.00000000	0.00307338
783.00000000	0.00285919
784.00000000	0.00184666
785.00000000	0.00186525
786.00000000	0.00227580
787.00000000	0.00179454
788.00000000	0.00360027
789.00000000	0.00216146
790.00000000	0.00275796
791.00000000	0.00196000
792.00000000	0.00302816
793.00000000	0.00085983
794.00000000	0.00185204
795.00000000	0.00089022
796.00000000	0.00166231
797.00000000	0.00067573
798.00000000	0.00164896
799.00000000	0.00078257
800.00000000	0.00065323
801.00000000	0.00001457
802.00000000	0.00164646
803.00000000	0.00016750
804.00000000	0.00075473
805.00000000	0.00156826
806.00000000	0.00124408
807.00000000	0.00000000
808.00000000	0.00096676
809.00000000	0.00087292
810.00000000	0.00027976
811.00000000	0.00000041
812.00000000	0.00036263
813.00000000	0.00000000
814.00000000	0.00051121
815.00000000	0.00000000
816.00000000	0.00000000
817.00000000	0.00000000
818.00000000	0.00049161
819.00000000	0.00000000
820.00000000	0.00041867
821.00000000	0.00126051
822.00000000	0.00032145
823.00000000	0.00000000
824.00000000	0.00000000
825.00000000	0.00000000
826.00000000	0.00000000
827.00000000	0.00000000
828.00000000	0.00000000
829.00000000	0.00000000
830.00000000	0.00000000
831.00000000	0.00000000
832.00000000	0.00000000
833.00000000	0.00000000
834.00000000	0.00000000
835.00000000	0.00000000
836.00000000	0.00000000
837.00000000	0.00000000
838.00000000	0.00000000
839.00000000	0.00000000
840.00000000	0.00000000
841.00000000	0.00000000
842.00000000	0.00000000
843.00000000	0.00000000
844.00000000	0.00000000
845.00000000	0.00000000
846.00000000	0.00000000
847.00000000	0.00000000
848.00000000	0.00000000
849.00000000	0.00000000
850.00000000	0.00000000
851.00000000	0.00004879
852.00000000	0.00000000
853.00000000	0.00000000
854.00000000	0.00000000
855.00000000	0.00000000
856.00000000	0.00000000
857.00000000	0.00000000
858.00000000	0.00000000
859.00000000	0.00000000
860.00000000	0.00000000
861.00000000	0.00000000
862.00000000	0.00000000
863.00000000	0.00000000
864.00000000	0.00000000
865.00000000	0.00000000
866.00000000	0.00000000
867.00000000	0.00000000
868.00000000	0.00000000
869.00000000	0.00000000
870.00000000	0.00000000
871.00000000	0.00000000
872.00000000	0.00000000
873.00000000	0.00000000
874.00000000	0.00000000
875.00000000	0.00000000
876.00000000	0.00000000
877.00000000	0.00000000
878.00000000	0.00000000
879.00000000	0.00000000
880.00000000	0.00000000
881.00000000	0.00000000
882.00000000	0.00000000
883.00000000	0.00000000
884.00000000	0.00000000
885.00000000	0.00000000
886.00000000	0.00000000
887.00000000	0.00000000
888.00000000	0.00005149
889.00000000	0.00000000
890.00000000	0.00000000
891.00000000	0.00000000
892.00000000	0.00000000
893.00000000	0.00000000
894.00000000	0.00000000
895.00000000	0.00000000
896.00000000	0.00000000
897.00000000	0.00000000
898.00000000	0.00000000
899.00000000	0.00000000
900.00000000	0.00000000
