#LICA Lamps Spectra Database
#Website 1: https://guaix.fis.ucm.es/lamps_spectra
#Website 2: http://carlostapia.es/lamparas/lamps.html
#Latest update: 2018/04/18
#Tester: Carlos Eugenio Tapia Ayuga
#Correct for Electrical Dark: Yes (JAZA2310)
#Correct for Detector Non-linearity: Yes (JAZA2310)
#Correct for Flux: Yes
#Start wavelength (nm): 300
#End wavelength (nm): 900
#Steps (nm):	1
#Locus: D65 sRGB Gamma 1 CIE1931
#XYZ coordinates: 0.3440	0.3275	0.5018
#xyY coordinates: 0.2932	0.2792	0.3275
#sRGB: 92	77	123
#CCT Lindbloom (K):	9086
#CCT McCamy (K):	9000
#CCT Hernández-Andrés (K):	9041
#Melathonin: 0.983
#Chlorophil a: 0.120
#Chlorophil b: 1.481
#Beta Carotene: 0.120
#Manufacturer: Unknown
#Luminance manufacturer: Unknown
#Other data:
#Begin Processed Spectral Data
W	S
300.00000000	0.00086178
301.00000000	0.00000000
302.00000000	0.00051359
303.00000000	0.00003853
304.00000000	0.00342374
305.00000000	0.00410787
306.00000000	0.00065439
307.00000000	0.00030906
308.00000000	0.00000000
309.00000000	0.00000000
310.00000000	0.00182771
311.00000000	0.00219948
312.00000000	0.00019539
313.00000000	0.00000000
314.00000000	0.00000000
315.00000000	0.00000000
316.00000000	0.00479893
317.00000000	0.00122492
318.00000000	0.00000000
319.00000000	0.00000000
320.00000000	0.00297801
321.00000000	0.00056681
322.00000000	0.00000000
323.00000000	0.00000000
324.00000000	0.00326406
325.00000000	0.00151229
326.00000000	0.00065534
327.00000000	0.00000624
328.00000000	0.00000000
329.00000000	0.00000000
330.00000000	0.00000000
331.00000000	0.00000000
332.00000000	0.00193344
333.00000000	0.00080006
334.00000000	0.00048495
335.00000000	0.00555972
336.00000000	0.00000811
337.00000000	0.00003470
338.00000000	0.00000000
339.00000000	0.00216859
340.00000000	0.00279030
341.00000000	0.00000095
342.00000000	0.00000000
343.00000000	0.00173113
344.00000000	0.00234978
345.00000000	0.00002242
346.00000000	0.00160067
347.00000000	0.00011789
348.00000000	0.00000000
349.00000000	0.00000000
350.00000000	0.00000393
351.00000000	0.00024323
352.00000000	0.00190679
353.00000000	0.00146338
354.00000000	0.00225495
355.00000000	0.00118048
356.00000000	0.00013971
357.00000000	0.00000000
358.00000000	0.00000000
359.00000000	0.00211031
360.00000000	0.00012426
361.00000000	0.00122935
362.00000000	0.00050096
363.00000000	0.00066413
364.00000000	0.00000000
365.00000000	0.00047842
366.00000000	0.00019460
367.00000000	0.00087232
368.00000000	0.00137740
369.00000000	0.00004312
370.00000000	0.00104459
371.00000000	0.00053334
372.00000000	0.00044492
373.00000000	0.00015452
374.00000000	0.00001071
375.00000000	0.00115066
376.00000000	0.00118519
377.00000000	0.00021140
378.00000000	0.00013315
379.00000000	0.00000000
380.00000000	0.00001607
381.00000000	0.00217127
382.00000000	0.00087500
383.00000000	0.00037747
384.00000000	0.00063237
385.00000000	0.00078014
386.00000000	0.00091306
387.00000000	0.00078162
388.00000000	0.00161358
389.00000000	0.00035380
390.00000000	0.00097735
391.00000000	0.00017130
392.00000000	0.00124621
393.00000000	0.00187990
394.00000000	0.00094802
395.00000000	0.00107670
396.00000000	0.00000000
397.00000000	0.00002280
398.00000000	0.00223313
399.00000000	0.00225522
400.00000000	0.00372570
401.00000000	0.00392564
402.00000000	0.00323292
403.00000000	0.00390631
404.00000000	0.00314066
405.00000000	0.00546774
406.00000000	0.00551793
407.00000000	0.00826186
408.00000000	0.00761555
409.00000000	0.01197071
410.00000000	0.01302846
411.00000000	0.01672653
412.00000000	0.02016065
413.00000000	0.02443156
414.00000000	0.02882428
415.00000000	0.03602883
416.00000000	0.04017614
417.00000000	0.04560058
418.00000000	0.05415364
419.00000000	0.06257250
420.00000000	0.07367819
421.00000000	0.08455792
422.00000000	0.09317296
423.00000000	0.10724150
424.00000000	0.12490797
425.00000000	0.13660653
426.00000000	0.15835173
427.00000000	0.17098941
428.00000000	0.19012158
429.00000000	0.21585721
430.00000000	0.23367458
431.00000000	0.25594926
432.00000000	0.28961129
433.00000000	0.30851272
434.00000000	0.33809533
435.00000000	0.36937622
436.00000000	0.40208210
437.00000000	0.42881195
438.00000000	0.46799540
439.00000000	0.51632895
440.00000000	0.54475718
441.00000000	0.59503372
442.00000000	0.62772525
443.00000000	0.67479291
444.00000000	0.71053833
445.00000000	0.76218676
446.00000000	0.80263163
447.00000000	0.84920867
448.00000000	0.88662317
449.00000000	0.95546074
450.00000000	0.95087151
451.00000000	0.98574713
452.00000000	1.00000000
453.00000000	0.99983289
454.00000000	0.97118760
455.00000000	0.95068176
456.00000000	0.91057331
457.00000000	0.86689967
458.00000000	0.81799748
459.00000000	0.77138664
460.00000000	0.71598326
461.00000000	0.67604546
462.00000000	0.62054237
463.00000000	0.56762802
464.00000000	0.54023924
465.00000000	0.50138456
466.00000000	0.46253419
467.00000000	0.44027169
468.00000000	0.40517715
469.00000000	0.38058070
470.00000000	0.35906480
471.00000000	0.33297867
472.00000000	0.31164974
473.00000000	0.28859611
474.00000000	0.26960909
475.00000000	0.25150970
476.00000000	0.23255553
477.00000000	0.21562370
478.00000000	0.19965691
479.00000000	0.18729675
480.00000000	0.17629738
481.00000000	0.16777032
482.00000000	0.15594413
483.00000000	0.15049087
484.00000000	0.13959210
485.00000000	0.13990231
486.00000000	0.13308196
487.00000000	0.12770393
488.00000000	0.12622558
489.00000000	0.12287868
490.00000000	0.11854586
491.00000000	0.11878544
492.00000000	0.11835157
493.00000000	0.11616529
494.00000000	0.11630806
495.00000000	0.11793021
496.00000000	0.12053993
497.00000000	0.12596029
498.00000000	0.13061595
499.00000000	0.13429662
500.00000000	0.13768147
501.00000000	0.14301785
502.00000000	0.14945913
503.00000000	0.15642301
504.00000000	0.16182428
505.00000000	0.16773431
506.00000000	0.17541674
507.00000000	0.17962634
508.00000000	0.18791648
509.00000000	0.19596347
510.00000000	0.20402053
511.00000000	0.21191233
512.00000000	0.22114916
513.00000000	0.22747148
514.00000000	0.23525384
515.00000000	0.24188730
516.00000000	0.24769395
517.00000000	0.25268755
518.00000000	0.26083438
519.00000000	0.26637071
520.00000000	0.27185978
521.00000000	0.27633479
522.00000000	0.28199938
523.00000000	0.29056765
524.00000000	0.29845188
525.00000000	0.29945046
526.00000000	0.30598988
527.00000000	0.31176639
528.00000000	0.31403838
529.00000000	0.32295010
530.00000000	0.32501358
531.00000000	0.32428198
532.00000000	0.32846737
533.00000000	0.32930002
534.00000000	0.33473489
535.00000000	0.33703548
536.00000000	0.33738360
537.00000000	0.34403123
538.00000000	0.34463882
539.00000000	0.34539187
540.00000000	0.34638247
541.00000000	0.34968613
542.00000000	0.34882945
543.00000000	0.35811112
544.00000000	0.35492315
545.00000000	0.35789507
546.00000000	0.35497399
547.00000000	0.35956098
548.00000000	0.35715961
549.00000000	0.36011021
550.00000000	0.36107355
551.00000000	0.36319255
552.00000000	0.36564168
553.00000000	0.36711305
554.00000000	0.36244947
555.00000000	0.36448349
556.00000000	0.36839119
557.00000000	0.36882170
558.00000000	0.37129527
559.00000000	0.37323898
560.00000000	0.36976534
561.00000000	0.37244871
562.00000000	0.37013331
563.00000000	0.36638388
564.00000000	0.36498800
565.00000000	0.36527169
566.00000000	0.36664494
567.00000000	0.36587370
568.00000000	0.36058978
569.00000000	0.36142217
570.00000000	0.35741409
571.00000000	0.36023093
572.00000000	0.36406817
573.00000000	0.35792578
574.00000000	0.35442602
575.00000000	0.35198390
576.00000000	0.35069379
577.00000000	0.35328690
578.00000000	0.35261789
579.00000000	0.34734968
580.00000000	0.34933952
581.00000000	0.34582222
582.00000000	0.34396591
583.00000000	0.34543994
584.00000000	0.34375514
585.00000000	0.34219605
586.00000000	0.33911514
587.00000000	0.33774601
588.00000000	0.33426784
589.00000000	0.33097045
590.00000000	0.32857226
591.00000000	0.32878286
592.00000000	0.32971410
593.00000000	0.32048361
594.00000000	0.31766566
595.00000000	0.31440381
596.00000000	0.31314294
597.00000000	0.30976398
598.00000000	0.30670470
599.00000000	0.30191446
600.00000000	0.29766037
601.00000000	0.29930858
602.00000000	0.29739978
603.00000000	0.29493825
604.00000000	0.29239318
605.00000000	0.28568045
606.00000000	0.27851431
607.00000000	0.27569110
608.00000000	0.27219545
609.00000000	0.26896959
610.00000000	0.26346746
611.00000000	0.26448505
612.00000000	0.25903578
613.00000000	0.25691915
614.00000000	0.25213704
615.00000000	0.25593093
616.00000000	0.24851038
617.00000000	0.24646162
618.00000000	0.24367149
619.00000000	0.23989704
620.00000000	0.23777083
621.00000000	0.23111170
622.00000000	0.22731379
623.00000000	0.22496577
624.00000000	0.22092609
625.00000000	0.21869100
626.00000000	0.21437262
627.00000000	0.21152303
628.00000000	0.21038845
629.00000000	0.20564478
630.00000000	0.19702868
631.00000000	0.19759337
632.00000000	0.19592298
633.00000000	0.19002568
634.00000000	0.18898277
635.00000000	0.18720306
636.00000000	0.17978867
637.00000000	0.17962560
638.00000000	0.17382413
639.00000000	0.17022783
640.00000000	0.16917593
641.00000000	0.16446793
642.00000000	0.16288083
643.00000000	0.15984494
644.00000000	0.15476665
645.00000000	0.15533949
646.00000000	0.15045258
647.00000000	0.14734709
648.00000000	0.14620954
649.00000000	0.14267794
650.00000000	0.13947541
651.00000000	0.13551825
652.00000000	0.13093861
653.00000000	0.13225513
654.00000000	0.12946798
655.00000000	0.12320813
656.00000000	0.11932562
657.00000000	0.11809360
658.00000000	0.11941118
659.00000000	0.11489519
660.00000000	0.11318015
661.00000000	0.11162352
662.00000000	0.10609301
663.00000000	0.10421052
664.00000000	0.10206342
665.00000000	0.10068492
666.00000000	0.09742899
667.00000000	0.09739957
668.00000000	0.09490387
669.00000000	0.09337953
670.00000000	0.08906490
671.00000000	0.08682833
672.00000000	0.08583617
673.00000000	0.08704933
674.00000000	0.08336480
675.00000000	0.07846872
676.00000000	0.07872290
677.00000000	0.07696390
678.00000000	0.07261893
679.00000000	0.07398840
680.00000000	0.06887284
681.00000000	0.06937463
682.00000000	0.06644968
683.00000000	0.06697309
684.00000000	0.06546451
685.00000000	0.06668499
686.00000000	0.06168729
687.00000000	0.06022953
688.00000000	0.05876050
689.00000000	0.05670993
690.00000000	0.05464509
691.00000000	0.05626191
692.00000000	0.05274994
693.00000000	0.05164600
694.00000000	0.05360313
695.00000000	0.04825782
696.00000000	0.04896341
697.00000000	0.04593310
698.00000000	0.04907488
699.00000000	0.04420111
700.00000000	0.04659124
701.00000000	0.04395558
702.00000000	0.04130604
703.00000000	0.04119555
704.00000000	0.04072846
705.00000000	0.04210282
706.00000000	0.04030235
707.00000000	0.03676744
708.00000000	0.03827186
709.00000000	0.03557207
710.00000000	0.03662375
711.00000000	0.03640776
712.00000000	0.03543842
713.00000000	0.03125847
714.00000000	0.03238531
715.00000000	0.03016060
716.00000000	0.02870852
717.00000000	0.02809834
718.00000000	0.02925748
719.00000000	0.02717374
720.00000000	0.02746204
721.00000000	0.02604133
722.00000000	0.02616740
723.00000000	0.02610303
724.00000000	0.02540020
725.00000000	0.02559205
726.00000000	0.02500106
727.00000000	0.02394638
728.00000000	0.02315229
729.00000000	0.02175609
730.00000000	0.02330465
731.00000000	0.02162963
732.00000000	0.02205725
733.00000000	0.01995090
734.00000000	0.01803280
735.00000000	0.01762086
736.00000000	0.01782091
737.00000000	0.01770981
738.00000000	0.01660288
739.00000000	0.01617418
740.00000000	0.01654922
741.00000000	0.01686594
742.00000000	0.01522633
743.00000000	0.01672317
744.00000000	0.01482430
745.00000000	0.01540470
746.00000000	0.01441954
747.00000000	0.01352412
748.00000000	0.01244244
749.00000000	0.01169046
750.00000000	0.01240798
751.00000000	0.01152955
752.00000000	0.01172314
753.00000000	0.00737949
754.00000000	0.01343696
755.00000000	0.01017038
756.00000000	0.00865665
757.00000000	0.01150437
758.00000000	0.01115357
759.00000000	0.00954119
760.00000000	0.01130428
761.00000000	0.01079411
762.00000000	0.01154138
763.00000000	0.00853302
764.00000000	0.01134085
765.00000000	0.00683870
766.00000000	0.00815437
767.00000000	0.00804179
768.00000000	0.01100332
769.00000000	0.00570139
770.00000000	0.00624545
771.00000000	0.00915163
772.00000000	0.00880283
773.00000000	0.00885512
774.00000000	0.00864319
775.00000000	0.00811074
776.00000000	0.00453676
777.00000000	0.00628634
778.00000000	0.00383285
779.00000000	0.00542024
780.00000000	0.00695186
781.00000000	0.00386990
782.00000000	0.00052547
783.00000000	0.00616827
784.00000000	0.00073192
785.00000000	0.00351529
786.00000000	0.00358853
787.00000000	0.00433095
788.00000000	0.00449134
789.00000000	0.00247892
790.00000000	0.00829954
791.00000000	0.00053993
792.00000000	0.00378290
793.00000000	0.00280064
794.00000000	0.00376197
795.00000000	0.00281897
796.00000000	0.00168471
797.00000000	0.00547174
798.00000000	0.00188244
799.00000000	0.00193295
800.00000000	0.00393260
801.00000000	0.00117851
802.00000000	0.00734222
803.00000000	0.00140661
804.00000000	0.00107042
805.00000000	0.00114764
806.00000000	0.00361559
807.00000000	0.00028392
808.00000000	0.00575236
809.00000000	0.00518367
810.00000000	0.00311203
811.00000000	0.00007608
812.00000000	0.00036264
813.00000000	0.00600251
814.00000000	0.00000000
815.00000000	0.00000000
816.00000000	0.00168864
817.00000000	0.00000000
818.00000000	0.00000000
819.00000000	0.00016003
820.00000000	0.00014426
821.00000000	0.00000000
822.00000000	0.00045402
823.00000000	0.00131235
824.00000000	0.00001219
825.00000000	0.00421917
826.00000000	0.00265233
827.00000000	0.00464253
828.00000000	0.00016376
829.00000000	0.00000000
830.00000000	0.00109647
831.00000000	0.00067990
832.00000000	0.00000000
833.00000000	0.00000000
834.00000000	0.00154276
835.00000000	0.00264050
836.00000000	0.00304263
837.00000000	0.00172266
838.00000000	0.00052252
839.00000000	0.00051115
840.00000000	0.00000000
841.00000000	0.00044374
842.00000000	0.00439023
843.00000000	0.00056534
844.00000000	0.00281945
845.00000000	0.00092692
846.00000000	0.00000593
847.00000000	0.00000000
848.00000000	0.00370283
849.00000000	0.00727610
850.00000000	0.00050690
851.00000000	0.00000000
852.00000000	0.00000000
853.00000000	0.00345372
854.00000000	0.00000000
855.00000000	0.00000000
856.00000000	0.00035948
857.00000000	0.00000000
858.00000000	0.00025778
859.00000000	0.00273885
860.00000000	0.00000003
861.00000000	0.00000000
862.00000000	0.00000000
863.00000000	0.00331936
864.00000000	0.00000000
865.00000000	0.00000000
866.00000000	0.00138306
867.00000000	0.00000000
868.00000000	0.00000000
869.00000000	0.00000000
870.00000000	0.00000000
871.00000000	0.00157791
872.00000000	0.00000000
873.00000000	0.00000000
874.00000000	0.00252380
875.00000000	0.00138529
876.00000000	0.00000000
877.00000000	0.00000000
878.00000000	0.00066577
879.00000000	0.00000000
880.00000000	0.00000000
881.00000000	0.00008004
882.00000000	0.00005288
883.00000000	0.00259498
884.00000000	0.00000511
885.00000000	0.00123593
886.00000000	0.00116954
887.00000000	0.00000000
888.00000000	0.00726998
889.00000000	0.00000000
890.00000000	0.00099832
891.00000000	0.00000000
892.00000000	0.00468179
893.00000000	0.00000000
894.00000000	0.00054992
895.00000000	0.01342266
896.00000000	0.00000000
897.00000000	0.00000000
898.00000000	0.00000000
899.00000000	0.00381553
900.00000000	0.00000000
