#LICA Lamps Spectra Database
#Website 1: https://guaix.fis.ucm.es/lamps_spectra
#Website 2: http://carlostapia.es/lamparas/lamps.html
#Latest update: 2017/12/15
#Tester: Carlos Eugenio Tapia Ayuga
#Correct for Electrical Dark: Yes (JAZA2310)
#Correct for Detector Non-linearity: Yes (JAZA2310)
#Correct for Flux: Yes
#Start wavelength (nm): 300
#End wavelength (nm): 900
#Steps (nm):	1
#Locus: D65 sRGB Gamma 1 CIE1931
#XYZ coordinates: 0.8060	0.7209	0.4103
#xyY coordinates: 0.4160	0.3722	0.7209
#sRGB: 255	116	65
#CCT Lindbloom (K):	2973
#CCT McCamy (K):	3119
#CCT Hernández-Andrés (K):	3106
#Melatonin: 0.414
#Chlorophyll a: 0.175
#Chlorophyll b: 0.731
#Beta Carotene: 0.176
#Manufacturer: Philips
#Luminance manufacturer: Unknown
#Other data: Madrid streetlamp tested in laboratory
#Begin Processed Spectral Data
W	S
300.00000000	0.00000000
301.00000000	0.00000000
302.00000000	0.00316838
303.00000000	0.00000000
304.00000000	0.00149508
305.00000000	0.00000000
306.00000000	0.00181537
307.00000000	0.00000000
308.00000000	0.00000000
309.00000000	0.00000000
310.00000000	0.00138008
311.00000000	0.00325560
312.00000000	0.00000000
313.00000000	0.00000000
314.00000000	0.00000000
315.00000000	0.00000000
316.00000000	0.00000000
317.00000000	0.00000000
318.00000000	0.00350583
319.00000000	0.00000000
320.00000000	0.00186281
321.00000000	0.00000000
322.00000000	0.00000000
323.00000000	0.00000000
324.00000000	0.00000000
325.00000000	0.00000000
326.00000000	0.00000000
327.00000000	0.01058614
328.00000000	0.00000000
329.00000000	0.00001075
330.00000000	0.00000000
331.00000000	0.00012490
332.00000000	0.00000000
333.00000000	0.00000000
334.00000000	0.00000000
335.00000000	0.00000000
336.00000000	0.00627744
337.00000000	0.00000000
338.00000000	0.00000000
339.00000000	0.00000000
340.00000000	0.00039481
341.00000000	0.00061852
342.00000000	0.00054414
343.00000000	0.00000000
344.00000000	0.00000000
345.00000000	0.00000000
346.00000000	0.00000000
347.00000000	0.00000000
348.00000000	0.00035936
349.00000000	0.00000000
350.00000000	0.00139083
351.00000000	0.00000000
352.00000000	0.00170428
353.00000000	0.00147177
354.00000000	0.00000000
355.00000000	0.00000000
356.00000000	0.00012895
357.00000000	0.00064169
358.00000000	0.00072570
359.00000000	0.00000000
360.00000000	0.00058935
361.00000000	0.00000000
362.00000000	0.00000000
363.00000000	0.00130584
364.00000000	0.00006168
365.00000000	0.00000000
366.00000000	0.00000000
367.00000000	0.00000000
368.00000000	0.00098639
369.00000000	0.00000000
370.00000000	0.00000000
371.00000000	0.00059773
372.00000000	0.00000000
373.00000000	0.00000000
374.00000000	0.00000000
375.00000000	0.00071035
376.00000000	0.00000000
377.00000000	0.00038029
378.00000000	0.00078613
379.00000000	0.00000000
380.00000000	0.00064364
381.00000000	0.00000000
382.00000000	0.00078557
383.00000000	0.00000000
384.00000000	0.00000000
385.00000000	0.00020389
386.00000000	0.00000000
387.00000000	0.00000000
388.00000000	0.00000000
389.00000000	0.00000000
390.00000000	0.00099477
391.00000000	0.00000000
392.00000000	0.00022427
393.00000000	0.00158914
394.00000000	0.00266025
395.00000000	0.00174628
396.00000000	0.00129635
397.00000000	0.00000000
398.00000000	0.00114046
399.00000000	0.00186365
400.00000000	0.00308031
401.00000000	0.00448078
402.00000000	0.00328323
403.00000000	0.00108032
404.00000000	0.00000000
405.00000000	0.00218645
406.00000000	0.00361133
407.00000000	0.00666792
408.00000000	0.00721778
409.00000000	0.00947317
410.00000000	0.01159472
411.00000000	0.01325420
412.00000000	0.01704473
413.00000000	0.01901277
414.00000000	0.02204228
415.00000000	0.02782387
416.00000000	0.03727178
417.00000000	0.04170204
418.00000000	0.04755704
419.00000000	0.05579735
420.00000000	0.06768989
421.00000000	0.07999622
422.00000000	0.09414610
423.00000000	0.11304778
424.00000000	0.12653937
425.00000000	0.15398532
426.00000000	0.17361201
427.00000000	0.19725250
428.00000000	0.22050670
429.00000000	0.24897338
430.00000000	0.27877939
431.00000000	0.31317922
432.00000000	0.33973954
433.00000000	0.36909771
434.00000000	0.39897894
435.00000000	0.43150479
436.00000000	0.46520711
437.00000000	0.49641791
438.00000000	0.52617982
439.00000000	0.56499734
440.00000000	0.59478032
441.00000000	0.62229815
442.00000000	0.66290815
443.00000000	0.70503291
444.00000000	0.73548688
445.00000000	0.77928270
446.00000000	0.80662720
447.00000000	0.84108606
448.00000000	0.86017656
449.00000000	0.86550487
450.00000000	0.86081559
451.00000000	0.82804943
452.00000000	0.79350083
453.00000000	0.73351828
454.00000000	0.68441997
455.00000000	0.61858271
456.00000000	0.55770546
457.00000000	0.49278704
458.00000000	0.44837842
459.00000000	0.39271155
460.00000000	0.35830795
461.00000000	0.32706771
462.00000000	0.30205411
463.00000000	0.27788608
464.00000000	0.26394051
465.00000000	0.23688644
466.00000000	0.22131963
467.00000000	0.20993131
468.00000000	0.20209375
469.00000000	0.18771304
470.00000000	0.17418601
471.00000000	0.16456700
472.00000000	0.14954014
473.00000000	0.13998407
474.00000000	0.12819090
475.00000000	0.12054356
476.00000000	0.11342124
477.00000000	0.11294549
478.00000000	0.10411121
479.00000000	0.10272303
480.00000000	0.10153037
481.00000000	0.10307444
482.00000000	0.09895093
483.00000000	0.10174460
484.00000000	0.09908281
485.00000000	0.10127861
486.00000000	0.10235139
487.00000000	0.10182777
488.00000000	0.10485519
489.00000000	0.10712929
490.00000000	0.10879770
491.00000000	0.11320897
492.00000000	0.12084473
493.00000000	0.12437553
494.00000000	0.13469651
495.00000000	0.13356540
496.00000000	0.14367914
497.00000000	0.15704289
498.00000000	0.16060412
499.00000000	0.17400765
500.00000000	0.18397457
501.00000000	0.19374682
502.00000000	0.20615642
503.00000000	0.21575156
504.00000000	0.22514141
505.00000000	0.24099013
506.00000000	0.24462058
507.00000000	0.25957599
508.00000000	0.27217887
509.00000000	0.28222590
510.00000000	0.29191636
511.00000000	0.30424725
512.00000000	0.31923239
513.00000000	0.32334068
514.00000000	0.34102947
515.00000000	0.35443537
516.00000000	0.36264568
517.00000000	0.37126615
518.00000000	0.37768957
519.00000000	0.39036377
520.00000000	0.39733132
521.00000000	0.41008758
522.00000000	0.42204474
523.00000000	0.43206539
524.00000000	0.43896400
525.00000000	0.45136788
526.00000000	0.46200719
527.00000000	0.46646341
528.00000000	0.47576310
529.00000000	0.48706769
530.00000000	0.49327186
531.00000000	0.49957568
532.00000000	0.51120515
533.00000000	0.51361266
534.00000000	0.52091263
535.00000000	0.52877001
536.00000000	0.53987642
537.00000000	0.54448321
538.00000000	0.55050205
539.00000000	0.56142885
540.00000000	0.56866938
541.00000000	0.57946486
542.00000000	0.58605393
543.00000000	0.59444678
544.00000000	0.59654880
545.00000000	0.61299287
546.00000000	0.61586594
547.00000000	0.62706306
548.00000000	0.63156296
549.00000000	0.64664997
550.00000000	0.65488498
551.00000000	0.66408518
552.00000000	0.67219696
553.00000000	0.68501728
554.00000000	0.68658940
555.00000000	0.70568450
556.00000000	0.71223575
557.00000000	0.72597576
558.00000000	0.73542939
559.00000000	0.75249072
560.00000000	0.76496131
561.00000000	0.77625068
562.00000000	0.78184931
563.00000000	0.78742310
564.00000000	0.79454333
565.00000000	0.80714203
566.00000000	0.81747236
567.00000000	0.83341193
568.00000000	0.83732470
569.00000000	0.85280401
570.00000000	0.85649015
571.00000000	0.86293031
572.00000000	0.86954185
573.00000000	0.87918765
574.00000000	0.88856522
575.00000000	0.89695277
576.00000000	0.89728283
577.00000000	0.91269934
578.00000000	0.91539545
579.00000000	0.91865803
580.00000000	0.92523482
581.00000000	0.93121974
582.00000000	0.93998870
583.00000000	0.95265663
584.00000000	0.95869347
585.00000000	0.97114703
586.00000000	0.97415519
587.00000000	0.98525365
588.00000000	0.97892373
589.00000000	0.98284112
590.00000000	0.98590175
591.00000000	0.98628861
592.00000000	0.98940172
593.00000000	0.99962054
594.00000000	0.99527011
595.00000000	0.99050743
596.00000000	0.98448148
597.00000000	0.98810495
598.00000000	0.99428177
599.00000000	1.00000000
600.00000000	0.99303217
601.00000000	0.98529691
602.00000000	0.99006015
603.00000000	0.99617584
604.00000000	0.98506231
605.00000000	0.97058210
606.00000000	0.96970707
607.00000000	0.95561064
608.00000000	0.94278390
609.00000000	0.93343689
610.00000000	0.93197224
611.00000000	0.92168252
612.00000000	0.92222205
613.00000000	0.91502953
614.00000000	0.91376472
615.00000000	0.90735623
616.00000000	0.90342448
617.00000000	0.89796052
618.00000000	0.89953696
619.00000000	0.89361553
620.00000000	0.88674735
621.00000000	0.87183995
622.00000000	0.86126692
623.00000000	0.85096367
624.00000000	0.83786591
625.00000000	0.82461533
626.00000000	0.81664939
627.00000000	0.80634432
628.00000000	0.79603310
629.00000000	0.78418620
630.00000000	0.77414210
631.00000000	0.75826938
632.00000000	0.73890451
633.00000000	0.73462051
634.00000000	0.72496661
635.00000000	0.71255339
636.00000000	0.69317330
637.00000000	0.68585979
638.00000000	0.67740511
639.00000000	0.65849869
640.00000000	0.64699551
641.00000000	0.63483237
642.00000000	0.62723514
643.00000000	0.60709586
644.00000000	0.59988785
645.00000000	0.58838384
646.00000000	0.58386929
647.00000000	0.56301660
648.00000000	0.54918993
649.00000000	0.54399169
650.00000000	0.52951566
651.00000000	0.51680057
652.00000000	0.51361000
653.00000000	0.49787572
654.00000000	0.48878397
655.00000000	0.47848043
656.00000000	0.47029663
657.00000000	0.46257715
658.00000000	0.44032553
659.00000000	0.44049146
660.00000000	0.42422937
661.00000000	0.42069661
662.00000000	0.40926517
663.00000000	0.39707370
664.00000000	0.39198431
665.00000000	0.38508515
666.00000000	0.37200162
667.00000000	0.36457883
668.00000000	0.35264610
669.00000000	0.34904552
670.00000000	0.33885349
671.00000000	0.33532156
672.00000000	0.32911851
673.00000000	0.31841793
674.00000000	0.30280423
675.00000000	0.30178448
676.00000000	0.29481204
677.00000000	0.28263858
678.00000000	0.27508097
679.00000000	0.27057787
680.00000000	0.26506200
681.00000000	0.25585022
682.00000000	0.25382566
683.00000000	0.23643874
684.00000000	0.23976677
685.00000000	0.23542345
686.00000000	0.22179314
687.00000000	0.22335842
688.00000000	0.21261347
689.00000000	0.20645186
690.00000000	0.20599271
691.00000000	0.19975016
692.00000000	0.19735438
693.00000000	0.18827113
694.00000000	0.18487263
695.00000000	0.17559624
696.00000000	0.17419201
697.00000000	0.16418936
698.00000000	0.16453644
699.00000000	0.15927707
700.00000000	0.15570119
701.00000000	0.15650936
702.00000000	0.14878639
703.00000000	0.14657454
704.00000000	0.13727833
705.00000000	0.13899000
706.00000000	0.13475150
707.00000000	0.12781228
708.00000000	0.12523953
709.00000000	0.11948502
710.00000000	0.12071731
711.00000000	0.11647783
712.00000000	0.11162025
713.00000000	0.10620876
714.00000000	0.10487082
715.00000000	0.10521316
716.00000000	0.09972101
717.00000000	0.09549660
718.00000000	0.09284180
719.00000000	0.09075834
720.00000000	0.09330680
721.00000000	0.08865047
722.00000000	0.08843694
723.00000000	0.08370580
724.00000000	0.08155968
725.00000000	0.07899434
726.00000000	0.07525140
727.00000000	0.07395170
728.00000000	0.07327876
729.00000000	0.06693879
730.00000000	0.06739850
731.00000000	0.06647491
732.00000000	0.06940980
733.00000000	0.05992533
734.00000000	0.06056967
735.00000000	0.05737980
736.00000000	0.06209140
737.00000000	0.05284599
738.00000000	0.05480636
739.00000000	0.05470015
740.00000000	0.05213243
741.00000000	0.04709580
742.00000000	0.05061293
743.00000000	0.04587118
744.00000000	0.04620556
745.00000000	0.04555746
746.00000000	0.04442132
747.00000000	0.04128099
748.00000000	0.03685241
749.00000000	0.04129216
750.00000000	0.03796008
751.00000000	0.03114800
752.00000000	0.03847589
753.00000000	0.03909887
754.00000000	0.03428218
755.00000000	0.03300690
756.00000000	0.03218770
757.00000000	0.03030214
758.00000000	0.02939069
759.00000000	0.02571767
760.00000000	0.02603419
761.00000000	0.02935343
762.00000000	0.02998116
763.00000000	0.02736333
764.00000000	0.02217040
765.00000000	0.02634596
766.00000000	0.02492987
767.00000000	0.02066443
768.00000000	0.02162891
769.00000000	0.01692401
770.00000000	0.01943284
771.00000000	0.02359640
772.00000000	0.02206322
773.00000000	0.02310990
774.00000000	0.01949508
775.00000000	0.01330305
776.00000000	0.01743674
777.00000000	0.01754127
778.00000000	0.02159012
779.00000000	0.01075138
780.00000000	0.01826599
781.00000000	0.01480078
782.00000000	0.01520675
783.00000000	0.01498262
784.00000000	0.00618868
785.00000000	0.00396623
786.00000000	0.02071021
787.00000000	0.01536278
788.00000000	0.01400642
789.00000000	0.01093810
790.00000000	0.01599553
791.00000000	0.00856590
792.00000000	0.01167678
793.00000000	0.01166045
794.00000000	0.00670616
795.00000000	0.00276882
796.00000000	0.00915749
797.00000000	0.00880985
798.00000000	0.00332761
799.00000000	0.00196302
800.00000000	0.01115861
801.00000000	0.00243737
802.00000000	0.01229112
803.00000000	0.00944219
804.00000000	0.00940451
805.00000000	0.00545684
806.00000000	0.00236759
807.00000000	0.00338134
808.00000000	0.00565543
809.00000000	0.01084767
810.00000000	0.00271314
811.00000000	0.00075626
812.00000000	0.00818366
813.00000000	0.00057149
814.00000000	0.00399414
815.00000000	0.00000000
816.00000000	0.00000000
817.00000000	0.00000000
818.00000000	0.00066388
819.00000000	0.00094997
820.00000000	0.00348043
821.00000000	0.01006140
822.00000000	0.00324416
823.00000000	0.00428972
824.00000000	0.00331338
825.00000000	0.00436397
826.00000000	0.00681864
827.00000000	0.00308980
828.00000000	0.01075319
829.00000000	0.00084363
830.00000000	0.00000000
831.00000000	0.00184691
832.00000000	0.00574740
833.00000000	0.00614723
834.00000000	0.00062452
835.00000000	0.00518052
836.00000000	0.00000000
837.00000000	0.00000000
838.00000000	0.00000000
839.00000000	0.01236829
840.00000000	0.00000000
841.00000000	0.00710809
842.00000000	0.00000000
843.00000000	0.00160031
844.00000000	0.00000000
845.00000000	0.00000000
846.00000000	0.00000000
847.00000000	0.00790608
848.00000000	0.00000000
849.00000000	0.00000000
850.00000000	0.00279185
851.00000000	0.00000000
852.00000000	0.00333431
853.00000000	0.00000000
854.00000000	0.00081236
855.00000000	0.00000000
856.00000000	0.00000000
857.00000000	0.00000000
858.00000000	0.00290852
859.00000000	0.00000000
860.00000000	0.00796748
861.00000000	0.00000000
862.00000000	0.00000000
863.00000000	0.00000000
864.00000000	0.00000000
865.00000000	0.00329858
866.00000000	0.00012588
867.00000000	0.00000000
868.00000000	0.00000000
869.00000000	0.01006838
870.00000000	0.00000000
871.00000000	0.00319196
872.00000000	0.00926914
873.00000000	0.00062047
874.00000000	0.00000000
875.00000000	0.00000000
876.00000000	0.00000000
877.00000000	0.00328491
878.00000000	0.00000000
879.00000000	0.00425497
880.00000000	0.00000000
881.00000000	0.00000000
882.00000000	0.00000000
883.00000000	0.01485507
884.00000000	0.00000000
885.00000000	0.00000000
886.00000000	0.00000000
887.00000000	0.00029977
888.00000000	0.00000000
889.00000000	0.00000000
890.00000000	0.00000000
891.00000000	0.00000000
892.00000000	0.00000000
893.00000000	0.00000000
894.00000000	0.00000000
895.00000000	0.00000000
896.00000000	0.00000000
897.00000000	0.00000000
898.00000000	0.00686623
899.00000000	0.00000000
900.00000000	0.00000000
