#LICA Lamps Spectra Database
#Website 1: https://guaix.fis.ucm.es/lamps_spectra
#Website 2: http://carlostapia.es/lamparas/lamps.html
#Latest update: 2017/12/17
#Tester: Carlos Eugenio Tapia Ayuga
#Correct for Electrical Dark: Yes (JAZA2310)
#Correct for Detector Non-linearity: Yes (JAZA2310)
#Correct for Flux: Yes
#Start wavelength (nm): 300
#End wavelength (nm): 900
#Steps (nm):	1
#Locus: D65 sRGB Gamma 1 CIE1931
#XYZ coordinates: 0.7846	0.7000	0.3452
#xyY coordinates: 0.4288	0.3826	0.7000
#sRGB: 255	112	52
#CCT Lindbloom (K):	2958
#CCT McCamy (K):	2964
#CCT Hernández-Andrés (K):	2929
#Melatonin: 0.369
#Chlorophyll a: 0.181
#Chlorophyll b: 0.678
#Beta Carotene: 0.181
#Manufacturer: Philips
#Luminance manufacturer: Unknown
#Other data:
#Begin Processed Spectral Data
W	S
300.00000000	0.00000000
301.00000000	0.00000000
302.00000000	0.00000000
303.00000000	0.01221280
304.00000000	0.00117831
305.00000000	0.00374713
306.00000000	0.00000000
307.00000000	0.00000000
308.00000000	0.01203047
309.00000000	0.00354696
310.00000000	0.00100762
311.00000000	0.00233985
312.00000000	0.00358898
313.00000000	0.01593143
314.00000000	0.01592840
315.00000000	0.00557858
316.00000000	0.00021351
317.00000000	0.00033189
318.00000000	0.00000000
319.00000000	0.00622549
320.00000000	0.00000000
321.00000000	0.00000000
322.00000000	0.00015156
323.00000000	0.00000000
324.00000000	0.01114507
325.00000000	0.00183714
326.00000000	0.00681390
327.00000000	0.00362827
328.00000000	0.00000000
329.00000000	0.00240218
330.00000000	0.00193211
331.00000000	0.00028576
332.00000000	0.00685759
333.00000000	0.00105737
334.00000000	0.00175482
335.00000000	0.00000000
336.00000000	0.00207064
337.00000000	0.00000000
338.00000000	0.00379911
339.00000000	0.00459134
340.00000000	0.00199944
341.00000000	0.00000817
342.00000000	0.00005928
343.00000000	0.00000000
344.00000000	0.00692250
345.00000000	0.00359509
346.00000000	0.00031004
347.00000000	0.00000000
348.00000000	0.00161662
349.00000000	0.00000000
350.00000000	0.00000000
351.00000000	0.00116585
352.00000000	0.00000000
353.00000000	0.00000000
354.00000000	0.00000000
355.00000000	0.00712594
356.00000000	0.00000000
357.00000000	0.00100495
358.00000000	0.00119927
359.00000000	0.00105642
360.00000000	0.00188446
361.00000000	0.00004132
362.00000000	0.00000000
363.00000000	0.00000109
364.00000000	0.00000000
365.00000000	0.00000000
366.00000000	0.00037291
367.00000000	0.00136317
368.00000000	0.00157898
369.00000000	0.00015581
370.00000000	0.00210840
371.00000000	0.00000000
372.00000000	0.00690302
373.00000000	0.00020031
374.00000000	0.00242732
375.00000000	0.00006900
376.00000000	0.00000237
377.00000000	0.00347871
378.00000000	0.00086264
379.00000000	0.00000000
380.00000000	0.00681543
381.00000000	0.00017963
382.00000000	0.00042330
383.00000000	0.00000000
384.00000000	0.00198489
385.00000000	0.00038069
386.00000000	0.00179975
387.00000000	0.00155384
388.00000000	0.00040905
389.00000000	0.00186376
390.00000000	0.00138790
391.00000000	0.00000000
392.00000000	0.00205082
393.00000000	0.00001461
394.00000000	0.00286264
395.00000000	0.00291835
396.00000000	0.00169049
397.00000000	0.00218337
398.00000000	0.00000000
399.00000000	0.00000000
400.00000000	0.00009253
401.00000000	0.00011688
402.00000000	0.00096128
403.00000000	0.00007077
404.00000000	0.00272122
405.00000000	0.00085641
406.00000000	0.00045549
407.00000000	0.00434302
408.00000000	0.00305982
409.00000000	0.00516817
410.00000000	0.00618198
411.00000000	0.00848123
412.00000000	0.01104411
413.00000000	0.01033938
414.00000000	0.01435357
415.00000000	0.01634092
416.00000000	0.02057412
417.00000000	0.02362914
418.00000000	0.02857602
419.00000000	0.03437255
420.00000000	0.04343692
421.00000000	0.05189924
422.00000000	0.06209719
423.00000000	0.07409064
424.00000000	0.08724439
425.00000000	0.10342227
426.00000000	0.12225277
427.00000000	0.14194519
428.00000000	0.15910493
429.00000000	0.18558487
430.00000000	0.20863523
431.00000000	0.23287145
432.00000000	0.24670769
433.00000000	0.28215898
434.00000000	0.29997953
435.00000000	0.31944626
436.00000000	0.33488778
437.00000000	0.34224209
438.00000000	0.35939575
439.00000000	0.37797250
440.00000000	0.38042582
441.00000000	0.39794720
442.00000000	0.40809252
443.00000000	0.43520430
444.00000000	0.46087943
445.00000000	0.49315270
446.00000000	0.53210201
447.00000000	0.56150616
448.00000000	0.59266061
449.00000000	0.65634505
450.00000000	0.66624896
451.00000000	0.68427433
452.00000000	0.69528726
453.00000000	0.69238066
454.00000000	0.68159151
455.00000000	0.64225168
456.00000000	0.60655536
457.00000000	0.56220122
458.00000000	0.50491384
459.00000000	0.47622091
460.00000000	0.41787008
461.00000000	0.38320167
462.00000000	0.34763135
463.00000000	0.30479519
464.00000000	0.28595774
465.00000000	0.26955384
466.00000000	0.25218030
467.00000000	0.23754819
468.00000000	0.22818065
469.00000000	0.21426621
470.00000000	0.20204585
471.00000000	0.19307256
472.00000000	0.18581371
473.00000000	0.17455643
474.00000000	0.16074099
475.00000000	0.15024314
476.00000000	0.14124617
477.00000000	0.13233647
478.00000000	0.12717388
479.00000000	0.12107098
480.00000000	0.11489443
481.00000000	0.11358681
482.00000000	0.10698973
483.00000000	0.11118744
484.00000000	0.10755877
485.00000000	0.11080712
486.00000000	0.11231516
487.00000000	0.11054798
488.00000000	0.11004940
489.00000000	0.10830754
490.00000000	0.11386329
491.00000000	0.11686938
492.00000000	0.12005449
493.00000000	0.12406752
494.00000000	0.12956468
495.00000000	0.13343851
496.00000000	0.13778293
497.00000000	0.14862089
498.00000000	0.15850357
499.00000000	0.16744908
500.00000000	0.17268635
501.00000000	0.18322486
502.00000000	0.19144688
503.00000000	0.20389283
504.00000000	0.21427427
505.00000000	0.22500443
506.00000000	0.23718240
507.00000000	0.24468903
508.00000000	0.25780351
509.00000000	0.26785462
510.00000000	0.27961623
511.00000000	0.28846924
512.00000000	0.30239107
513.00000000	0.31009579
514.00000000	0.32797222
515.00000000	0.33257650
516.00000000	0.34156221
517.00000000	0.35275886
518.00000000	0.36408131
519.00000000	0.36460974
520.00000000	0.37764650
521.00000000	0.39116494
522.00000000	0.39924220
523.00000000	0.40532512
524.00000000	0.41726876
525.00000000	0.42479086
526.00000000	0.43259548
527.00000000	0.43961913
528.00000000	0.45066108
529.00000000	0.45626212
530.00000000	0.46449681
531.00000000	0.46599544
532.00000000	0.47599583
533.00000000	0.47975342
534.00000000	0.48921958
535.00000000	0.49875916
536.00000000	0.49925259
537.00000000	0.50500053
538.00000000	0.51706419
539.00000000	0.52684807
540.00000000	0.53195411
541.00000000	0.54567679
542.00000000	0.54864098
543.00000000	0.55311524
544.00000000	0.56086793
545.00000000	0.56718178
546.00000000	0.57948586
547.00000000	0.59017056
548.00000000	0.60044018
549.00000000	0.60537282
550.00000000	0.60891416
551.00000000	0.62219215
552.00000000	0.63417088
553.00000000	0.64096447
554.00000000	0.65265482
555.00000000	0.66114457
556.00000000	0.68027416
557.00000000	0.69089196
558.00000000	0.68822093
559.00000000	0.70214330
560.00000000	0.71989771
561.00000000	0.73562594
562.00000000	0.73562755
563.00000000	0.75624385
564.00000000	0.75967896
565.00000000	0.77482902
566.00000000	0.78532068
567.00000000	0.79631932
568.00000000	0.80777891
569.00000000	0.81322510
570.00000000	0.81713711
571.00000000	0.83195416
572.00000000	0.83241600
573.00000000	0.85799928
574.00000000	0.85412415
575.00000000	0.86918115
576.00000000	0.88315854
577.00000000	0.88785176
578.00000000	0.89738432
579.00000000	0.90528793
580.00000000	0.91407158
581.00000000	0.92000620
582.00000000	0.93182060
583.00000000	0.93577806
584.00000000	0.94431918
585.00000000	0.95773049
586.00000000	0.96774326
587.00000000	0.97333778
588.00000000	0.97379525
589.00000000	0.97646526
590.00000000	0.97452481
591.00000000	0.98095803
592.00000000	0.97706400
593.00000000	0.98515814
594.00000000	0.98847325
595.00000000	0.98182041
596.00000000	0.99576400
597.00000000	0.98844123
598.00000000	1.00000000
599.00000000	0.99658727
600.00000000	0.99502247
601.00000000	0.98690184
602.00000000	0.98928512
603.00000000	0.98821449
604.00000000	0.98751737
605.00000000	0.98145371
606.00000000	0.97841584
607.00000000	0.97412715
608.00000000	0.96506808
609.00000000	0.94379151
610.00000000	0.94501585
611.00000000	0.94679043
612.00000000	0.93802958
613.00000000	0.92103917
614.00000000	0.92806245
615.00000000	0.91742334
616.00000000	0.90487512
617.00000000	0.90113902
618.00000000	0.90419260
619.00000000	0.89291943
620.00000000	0.88563229
621.00000000	0.87167765
622.00000000	0.85913983
623.00000000	0.85840500
624.00000000	0.84223661
625.00000000	0.82983471
626.00000000	0.83077494
627.00000000	0.80889870
628.00000000	0.79621429
629.00000000	0.78186347
630.00000000	0.77379541
631.00000000	0.76095180
632.00000000	0.74805416
633.00000000	0.73258876
634.00000000	0.72229239
635.00000000	0.72289444
636.00000000	0.70322243
637.00000000	0.68569336
638.00000000	0.68289254
639.00000000	0.66068974
640.00000000	0.65536782
641.00000000	0.64112893
642.00000000	0.62172434
643.00000000	0.61717436
644.00000000	0.61000782
645.00000000	0.59320682
646.00000000	0.58064233
647.00000000	0.57124305
648.00000000	0.55798447
649.00000000	0.55632007
650.00000000	0.53503274
651.00000000	0.52673104
652.00000000	0.51209454
653.00000000	0.50970666
654.00000000	0.49865911
655.00000000	0.48383592
656.00000000	0.47256366
657.00000000	0.45748290
658.00000000	0.44775335
659.00000000	0.44099884
660.00000000	0.43376468
661.00000000	0.42358189
662.00000000	0.41076285
663.00000000	0.39836409
664.00000000	0.38520730
665.00000000	0.37902108
666.00000000	0.37707115
667.00000000	0.37057183
668.00000000	0.35380477
669.00000000	0.34752499
670.00000000	0.34145959
671.00000000	0.33380708
672.00000000	0.32218140
673.00000000	0.31445332
674.00000000	0.30811441
675.00000000	0.29682497
676.00000000	0.29271332
677.00000000	0.27961213
678.00000000	0.28654506
679.00000000	0.26921674
680.00000000	0.26721628
681.00000000	0.25750893
682.00000000	0.24574567
683.00000000	0.24602032
684.00000000	0.24178802
685.00000000	0.23453906
686.00000000	0.22346803
687.00000000	0.22250281
688.00000000	0.20938933
689.00000000	0.20653560
690.00000000	0.19889266
691.00000000	0.19932417
692.00000000	0.19931951
693.00000000	0.19100873
694.00000000	0.18293445
695.00000000	0.17846944
696.00000000	0.16895133
697.00000000	0.16705311
698.00000000	0.16453811
699.00000000	0.16241192
700.00000000	0.15625618
701.00000000	0.15241991
702.00000000	0.14794044
703.00000000	0.14495247
704.00000000	0.13864672
705.00000000	0.13691871
706.00000000	0.13766638
707.00000000	0.13083682
708.00000000	0.12344781
709.00000000	0.12300431
710.00000000	0.12133606
711.00000000	0.11902244
712.00000000	0.10719805
713.00000000	0.11667399
714.00000000	0.09989962
715.00000000	0.10155510
716.00000000	0.09950622
717.00000000	0.09344010
718.00000000	0.09612970
719.00000000	0.09340810
720.00000000	0.09208010
721.00000000	0.09077281
722.00000000	0.08904113
723.00000000	0.08558426
724.00000000	0.07858087
725.00000000	0.07909492
726.00000000	0.07325803
727.00000000	0.07552242
728.00000000	0.07268099
729.00000000	0.07229293
730.00000000	0.06306288
731.00000000	0.06927103
732.00000000	0.06771241
733.00000000	0.06282869
734.00000000	0.06167532
735.00000000	0.05125545
736.00000000	0.05725824
737.00000000	0.05738884
738.00000000	0.05081179
739.00000000	0.04872862
740.00000000	0.05211306
741.00000000	0.04596457
742.00000000	0.04370988
743.00000000	0.04195834
744.00000000	0.04463643
745.00000000	0.04127857
746.00000000	0.03880228
747.00000000	0.03361041
748.00000000	0.04284033
749.00000000	0.04613776
750.00000000	0.03031330
751.00000000	0.03274577
752.00000000	0.03369631
753.00000000	0.03538721
754.00000000	0.03621167
755.00000000	0.03056661
756.00000000	0.03144493
757.00000000	0.02403022
758.00000000	0.03648662
759.00000000	0.02864552
760.00000000	0.02730149
761.00000000	0.02743925
762.00000000	0.02060682
763.00000000	0.01945001
764.00000000	0.02647361
765.00000000	0.03138019
766.00000000	0.02084810
767.00000000	0.02421304
768.00000000	0.02365844
769.00000000	0.02375425
770.00000000	0.01702537
771.00000000	0.02009162
772.00000000	0.01989154
773.00000000	0.02059623
774.00000000	0.02319518
775.00000000	0.01170191
776.00000000	0.02229516
777.00000000	0.01604963
778.00000000	0.01552778
779.00000000	0.01188781
780.00000000	0.01412409
781.00000000	0.01663973
782.00000000	0.01090804
783.00000000	0.01218995
784.00000000	0.00723988
785.00000000	0.01948225
786.00000000	0.01656183
787.00000000	0.00769488
788.00000000	0.01374208
789.00000000	0.00350974
790.00000000	0.00576912
791.00000000	0.00700573
792.00000000	0.01078565
793.00000000	0.00000000
794.00000000	0.00926015
795.00000000	0.00523482
796.00000000	0.01176803
797.00000000	0.01244998
798.00000000	0.00151298
799.00000000	0.00788729
800.00000000	0.01423825
801.00000000	0.01028642
802.00000000	0.01470720
803.00000000	0.01711413
804.00000000	0.01578362
805.00000000	0.00584107
806.00000000	0.01084779
807.00000000	0.00939695
808.00000000	0.01225524
809.00000000	0.00839462
810.00000000	0.00241061
811.00000000	0.00274887
812.00000000	0.01200231
813.00000000	0.00015291
814.00000000	0.00142974
815.00000000	0.00459236
816.00000000	0.01408871
817.00000000	0.01092977
818.00000000	0.01738921
819.00000000	0.00140616
820.00000000	0.00016167
821.00000000	0.00536951
822.00000000	0.01204365
823.00000000	0.00139105
824.00000000	0.00002785
825.00000000	0.00969795
826.00000000	0.00000000
827.00000000	0.00439577
828.00000000	0.00004967
829.00000000	0.00187767
830.00000000	0.00101461
831.00000000	0.00841650
832.00000000	0.00766850
833.00000000	0.00741778
834.00000000	0.00801751
835.00000000	0.00000142
836.00000000	0.00365636
837.00000000	0.00000000
838.00000000	0.00693840
839.00000000	0.00008733
840.00000000	0.00634926
841.00000000	0.00224469
842.00000000	0.00037052
843.00000000	0.00444823
844.00000000	0.00128657
845.00000000	0.00048129
846.00000000	0.00612108
847.00000000	0.00190554
848.00000000	0.00128888
849.00000000	0.00001697
850.00000000	0.01655319
851.00000000	0.00778442
852.00000000	0.00841671
853.00000000	0.00000000
854.00000000	0.01053337
855.00000000	0.00062707
856.00000000	0.00028031
857.00000000	0.00165649
858.00000000	0.00186880
859.00000000	0.01573404
860.00000000	0.00000000
861.00000000	0.00230724
862.00000000	0.00000000
863.00000000	0.00087271
864.00000000	0.01123845
865.00000000	0.00028544
866.00000000	0.00338235
867.00000000	0.00369431
868.00000000	0.00000000
869.00000000	0.00001324
870.00000000	0.00062445
871.00000000	0.00636902
872.00000000	0.00168926
873.00000000	0.00000000
874.00000000	0.00000000
875.00000000	0.00830913
876.00000000	0.00000000
877.00000000	0.00079218
878.00000000	0.01296054
879.00000000	0.00000000
880.00000000	0.00270918
881.00000000	0.00000000
882.00000000	0.00000000
883.00000000	0.02500149
884.00000000	0.00009109
885.00000000	0.00000000
886.00000000	0.00000000
887.00000000	0.00019266
888.00000000	0.00734818
889.00000000	0.01368339
890.00000000	0.01056916
891.00000000	0.00439605
892.00000000	0.00000000
893.00000000	0.00000000
894.00000000	0.00009386
895.00000000	0.00899530
896.00000000	0.00000000
897.00000000	0.00761866
898.00000000	0.00047147
899.00000000	0.00588564
900.00000000	0.00182877
