#LICA Lamps Spectra Database
#Website 1: https://guaix.fis.ucm.es/lamps_spectra
#Website 2: http://carlostapia.es/lamparas/lamps.html
#Latest update: 2017/12/15
#Tester: Carlos Eugenio Tapia Ayuga
#Correct for Electrical Dark: Yes (JAZA2310)
#Correct for Detector Non-linearity: Yes (JAZA2310)
#Correct for Flux: Yes
#Start wavelength (nm): 300
#End wavelength (nm): 900
#Steps (nm):	1
#Locus: D65 sRGB Gamma 1 CIE1931
#XYZ coordinates: 0.6268	0.6441	0.4732
#xyY coordinates: 0.3594	0.3693	0.6441
#sRGB: 205	158	103
#CCT Lindbloom (K):	4577
#CCT McCamy (K):	4579
#CCT Hernández-Andrés (K):	4578
#Melatonin: 0.534
#Chlorophyll a: 0.113
#Chlorophyll b: 0.824
#Beta Carotene: 0.114
#Manufacturer: Unknown
#Luminance manufacturer: Unknown
#Other data:
#Begin Processed Spectral Data
W	S
300.00000000	0.00000000
301.00000000	0.00000000
302.00000000	0.00000000
303.00000000	0.00297306
304.00000000	0.00000000
305.00000000	0.00000000
306.00000000	0.00421304
307.00000000	0.00476196
308.00000000	0.00000000
309.00000000	0.00000000
310.00000000	0.00000000
311.00000000	0.00005104
312.00000000	0.00000000
313.00000000	0.00000000
314.00000000	0.00000000
315.00000000	0.00000000
316.00000000	0.00000000
317.00000000	0.00000000
318.00000000	0.00316006
319.00000000	0.00000000
320.00000000	0.00347586
321.00000000	0.00000000
322.00000000	0.00000000
323.00000000	0.00000000
324.00000000	0.00000000
325.00000000	0.00005441
326.00000000	0.00000000
327.00000000	0.00494446
328.00000000	0.00000000
329.00000000	0.00000000
330.00000000	0.00424383
331.00000000	0.00000000
332.00000000	0.00000000
333.00000000	0.00064832
334.00000000	0.00000000
335.00000000	0.00070133
336.00000000	0.00000000
337.00000000	0.00000000
338.00000000	0.00000000
339.00000000	0.00000000
340.00000000	0.00000000
341.00000000	0.00173069
342.00000000	0.00000000
343.00000000	0.00000000
344.00000000	0.00000000
345.00000000	0.00017997
346.00000000	0.00000000
347.00000000	0.00000000
348.00000000	0.00000000
349.00000000	0.00000000
350.00000000	0.00000000
351.00000000	0.00000000
352.00000000	0.00000000
353.00000000	0.00000000
354.00000000	0.00000000
355.00000000	0.00000000
356.00000000	0.00000000
357.00000000	0.00000000
358.00000000	0.00000000
359.00000000	0.00000000
360.00000000	0.00027966
361.00000000	0.00167951
362.00000000	0.00000000
363.00000000	0.00000000
364.00000000	0.00156801
365.00000000	0.00033014
366.00000000	0.00000000
367.00000000	0.00000000
368.00000000	0.00263941
369.00000000	0.00000000
370.00000000	0.00079019
371.00000000	0.00000000
372.00000000	0.00000000
373.00000000	0.00000000
374.00000000	0.00000000
375.00000000	0.00000000
376.00000000	0.00265206
377.00000000	0.00127106
378.00000000	0.00084376
379.00000000	0.00000000
380.00000000	0.00000000
381.00000000	0.00176176
382.00000000	0.00080327
383.00000000	0.00053584
384.00000000	0.00000000
385.00000000	0.00000000
386.00000000	0.00000000
387.00000000	0.00000000
388.00000000	0.00000000
389.00000000	0.00000000
390.00000000	0.00136807
391.00000000	0.00122508
392.00000000	0.00151838
393.00000000	0.00203200
394.00000000	0.00087301
395.00000000	0.00000000
396.00000000	0.00000000
397.00000000	0.00000000
398.00000000	0.00000000
399.00000000	0.00081677
400.00000000	0.00145890
401.00000000	0.00092559
402.00000000	0.00000000
403.00000000	0.00240333
404.00000000	0.00112483
405.00000000	0.00216065
406.00000000	0.00153328
407.00000000	0.00291007
408.00000000	0.00591673
409.00000000	0.00863277
410.00000000	0.00879756
411.00000000	0.01004105
412.00000000	0.01190503
413.00000000	0.01555679
414.00000000	0.01946725
415.00000000	0.02039425
416.00000000	0.02263673
417.00000000	0.02927040
418.00000000	0.03570441
419.00000000	0.04434463
420.00000000	0.05140068
421.00000000	0.05948537
422.00000000	0.06977403
423.00000000	0.08132390
424.00000000	0.09491786
425.00000000	0.10767425
426.00000000	0.12290722
427.00000000	0.14649485
428.00000000	0.16489633
429.00000000	0.18619634
430.00000000	0.20749340
431.00000000	0.23282353
432.00000000	0.26139401
433.00000000	0.28722174
434.00000000	0.31573105
435.00000000	0.35056260
436.00000000	0.38319033
437.00000000	0.41428857
438.00000000	0.46364558
439.00000000	0.50263660
440.00000000	0.54280095
441.00000000	0.60290132
442.00000000	0.65340439
443.00000000	0.70966559
444.00000000	0.76605937
445.00000000	0.82574061
446.00000000	0.87072457
447.00000000	0.92188326
448.00000000	0.96397754
449.00000000	0.98509154
450.00000000	1.00000000
451.00000000	0.99747195
452.00000000	0.98677315
453.00000000	0.94452787
454.00000000	0.90001493
455.00000000	0.85007428
456.00000000	0.78314986
457.00000000	0.71848226
458.00000000	0.65434221
459.00000000	0.58758680
460.00000000	0.54178059
461.00000000	0.49737704
462.00000000	0.46102164
463.00000000	0.42638229
464.00000000	0.40571204
465.00000000	0.37904210
466.00000000	0.35156763
467.00000000	0.33325488
468.00000000	0.31038952
469.00000000	0.29461958
470.00000000	0.27362904
471.00000000	0.25482938
472.00000000	0.24049767
473.00000000	0.22565515
474.00000000	0.20668086
475.00000000	0.19668958
476.00000000	0.18405102
477.00000000	0.17537621
478.00000000	0.16440703
479.00000000	0.15802785
480.00000000	0.15122869
481.00000000	0.14743718
482.00000000	0.14273470
483.00000000	0.14094988
484.00000000	0.13962539
485.00000000	0.13909222
486.00000000	0.14002372
487.00000000	0.13841409
488.00000000	0.13973534
489.00000000	0.13912752
490.00000000	0.14444837
491.00000000	0.14665360
492.00000000	0.15269589
493.00000000	0.15653605
494.00000000	0.16214106
495.00000000	0.16970454
496.00000000	0.18048517
497.00000000	0.18722219
498.00000000	0.20234746
499.00000000	0.21249945
500.00000000	0.22748721
501.00000000	0.24440518
502.00000000	0.25616553
503.00000000	0.27154305
504.00000000	0.28806718
505.00000000	0.30579292
506.00000000	0.31681426
507.00000000	0.33359500
508.00000000	0.35431966
509.00000000	0.36660418
510.00000000	0.38173381
511.00000000	0.40169360
512.00000000	0.41974947
513.00000000	0.43129849
514.00000000	0.45077685
515.00000000	0.46828099
516.00000000	0.48252482
517.00000000	0.49269453
518.00000000	0.50818101
519.00000000	0.51892677
520.00000000	0.53267736
521.00000000	0.54488525
522.00000000	0.55346670
523.00000000	0.55909787
524.00000000	0.57104284
525.00000000	0.58013285
526.00000000	0.59725835
527.00000000	0.60716934
528.00000000	0.61856750
529.00000000	0.62550009
530.00000000	0.63061173
531.00000000	0.63198753
532.00000000	0.63341944
533.00000000	0.63633541
534.00000000	0.64343223
535.00000000	0.64842956
536.00000000	0.64932914
537.00000000	0.65748484
538.00000000	0.66703224
539.00000000	0.67634539
540.00000000	0.66914424
541.00000000	0.67670913
542.00000000	0.67532896
543.00000000	0.67320543
544.00000000	0.68146630
545.00000000	0.68516952
546.00000000	0.69089067
547.00000000	0.69111831
548.00000000	0.69515798
549.00000000	0.69827572
550.00000000	0.69504592
551.00000000	0.69596561
552.00000000	0.69835263
553.00000000	0.70194927
554.00000000	0.70800970
555.00000000	0.70540319
556.00000000	0.71062577
557.00000000	0.71455479
558.00000000	0.72266170
559.00000000	0.71125637
560.00000000	0.71564123
561.00000000	0.71483670
562.00000000	0.71556024
563.00000000	0.71266775
564.00000000	0.71677295
565.00000000	0.71692677
566.00000000	0.72373788
567.00000000	0.72848226
568.00000000	0.73032459
569.00000000	0.73247582
570.00000000	0.72782410
571.00000000	0.72970565
572.00000000	0.72512367
573.00000000	0.72666651
574.00000000	0.72165175
575.00000000	0.72274817
576.00000000	0.73028283
577.00000000	0.71761615
578.00000000	0.71740060
579.00000000	0.71897452
580.00000000	0.71894822
581.00000000	0.71942136
582.00000000	0.71400334
583.00000000	0.71048010
584.00000000	0.70937749
585.00000000	0.72822608
586.00000000	0.72768349
587.00000000	0.71849084
588.00000000	0.71892517
589.00000000	0.70852234
590.00000000	0.71243097
591.00000000	0.70735899
592.00000000	0.70300872
593.00000000	0.70851826
594.00000000	0.69393712
595.00000000	0.69054141
596.00000000	0.68754726
597.00000000	0.68690737
598.00000000	0.68114263
599.00000000	0.67887779
600.00000000	0.67760561
601.00000000	0.66577721
602.00000000	0.66178042
603.00000000	0.65785927
604.00000000	0.66046732
605.00000000	0.64786194
606.00000000	0.63888469
607.00000000	0.63540279
608.00000000	0.62703984
609.00000000	0.61835772
610.00000000	0.60711844
611.00000000	0.60050488
612.00000000	0.59613633
613.00000000	0.58741386
614.00000000	0.57921949
615.00000000	0.57887796
616.00000000	0.58091952
617.00000000	0.56861841
618.00000000	0.57086638
619.00000000	0.55511964
620.00000000	0.55511162
621.00000000	0.54317706
622.00000000	0.53469207
623.00000000	0.52910941
624.00000000	0.52271167
625.00000000	0.51609726
626.00000000	0.50119035
627.00000000	0.49510405
628.00000000	0.48601685
629.00000000	0.47441960
630.00000000	0.46635177
631.00000000	0.45839137
632.00000000	0.44904433
633.00000000	0.43738086
634.00000000	0.43424034
635.00000000	0.42956288
636.00000000	0.42154793
637.00000000	0.41375132
638.00000000	0.40368637
639.00000000	0.39637893
640.00000000	0.38848826
641.00000000	0.38253511
642.00000000	0.37735528
643.00000000	0.36957457
644.00000000	0.36587909
645.00000000	0.35390404
646.00000000	0.34776023
647.00000000	0.34508764
648.00000000	0.33492989
649.00000000	0.32725533
650.00000000	0.32245358
651.00000000	0.31438885
652.00000000	0.30950977
653.00000000	0.29080515
654.00000000	0.28947336
655.00000000	0.28731566
656.00000000	0.27709660
657.00000000	0.26699284
658.00000000	0.26036943
659.00000000	0.25296357
660.00000000	0.25451780
661.00000000	0.24622712
662.00000000	0.23805792
663.00000000	0.23254711
664.00000000	0.22897550
665.00000000	0.22411160
666.00000000	0.21666075
667.00000000	0.21082781
668.00000000	0.20973336
669.00000000	0.20306201
670.00000000	0.19806341
671.00000000	0.19234015
672.00000000	0.18481955
673.00000000	0.18228124
674.00000000	0.18029156
675.00000000	0.17293856
676.00000000	0.17336572
677.00000000	0.16662041
678.00000000	0.16371610
679.00000000	0.15549108
680.00000000	0.15717720
681.00000000	0.14974223
682.00000000	0.15351448
683.00000000	0.14131559
684.00000000	0.13752759
685.00000000	0.13954905
686.00000000	0.13580042
687.00000000	0.12689094
688.00000000	0.12502668
689.00000000	0.12422257
690.00000000	0.11927319
691.00000000	0.11611228
692.00000000	0.11305598
693.00000000	0.10836011
694.00000000	0.10454188
695.00000000	0.10050952
696.00000000	0.10268465
697.00000000	0.09801662
698.00000000	0.09583235
699.00000000	0.09334240
700.00000000	0.09146548
701.00000000	0.09080830
702.00000000	0.08851661
703.00000000	0.08106660
704.00000000	0.08145157
705.00000000	0.07860350
706.00000000	0.07929907
707.00000000	0.07897934
708.00000000	0.07180125
709.00000000	0.07408324
710.00000000	0.06769366
711.00000000	0.06708401
712.00000000	0.06717652
713.00000000	0.06889484
714.00000000	0.06505215
715.00000000	0.05838178
716.00000000	0.05917253
717.00000000	0.05658276
718.00000000	0.05658051
719.00000000	0.05585345
720.00000000	0.05721140
721.00000000	0.04923440
722.00000000	0.05021820
723.00000000	0.04427138
724.00000000	0.04590927
725.00000000	0.04242371
726.00000000	0.04321334
727.00000000	0.04432551
728.00000000	0.04010924
729.00000000	0.04155464
730.00000000	0.04211677
731.00000000	0.03449016
732.00000000	0.03761240
733.00000000	0.03184274
734.00000000	0.04217062
735.00000000	0.03112327
736.00000000	0.03307625
737.00000000	0.03156196
738.00000000	0.03281811
739.00000000	0.03286690
740.00000000	0.02985573
741.00000000	0.02876029
742.00000000	0.02777593
743.00000000	0.02815837
744.00000000	0.02684401
745.00000000	0.02638803
746.00000000	0.02692176
747.00000000	0.02147605
748.00000000	0.02387278
749.00000000	0.02783610
750.00000000	0.02098984
751.00000000	0.01913121
752.00000000	0.02181828
753.00000000	0.02055285
754.00000000	0.02135710
755.00000000	0.01596383
756.00000000	0.01389584
757.00000000	0.01339641
758.00000000	0.01804715
759.00000000	0.01387700
760.00000000	0.01737901
761.00000000	0.01205267
762.00000000	0.01504850
763.00000000	0.01401929
764.00000000	0.01183684
765.00000000	0.01110711
766.00000000	0.00883875
767.00000000	0.00981637
768.00000000	0.00995093
769.00000000	0.01324583
770.00000000	0.00976336
771.00000000	0.01494277
772.00000000	0.00981468
773.00000000	0.01103512
774.00000000	0.00367973
775.00000000	0.00780602
776.00000000	0.00853378
777.00000000	0.01142923
778.00000000	0.00771013
779.00000000	0.01078653
780.00000000	0.00697534
781.00000000	0.00546554
782.00000000	0.00064523
783.00000000	0.00740854
784.00000000	0.00844858
785.00000000	0.00428658
786.00000000	0.01177582
787.00000000	0.00844408
788.00000000	0.00586162
789.00000000	0.00031453
790.00000000	0.00224192
791.00000000	0.00242836
792.00000000	0.00000000
793.00000000	0.00000000
794.00000000	0.00303942
795.00000000	0.00687241
796.00000000	0.00570752
797.00000000	0.00109150
798.00000000	0.00195917
799.00000000	0.00374961
800.00000000	0.00683979
801.00000000	0.00000000
802.00000000	0.00428123
803.00000000	0.00774205
804.00000000	0.00507719
805.00000000	0.00011234
806.00000000	0.00045499
807.00000000	0.00313194
808.00000000	0.00362687
809.00000000	0.00000000
810.00000000	0.00000000
811.00000000	0.00000000
812.00000000	0.00000000
813.00000000	0.00000000
814.00000000	0.00000000
815.00000000	0.00000000
816.00000000	0.01203397
817.00000000	0.00000000
818.00000000	0.00263842
819.00000000	0.00000000
820.00000000	0.00000000
821.00000000	0.00482790
822.00000000	0.00000000
823.00000000	0.00027375
824.00000000	0.00170932
825.00000000	0.00000000
826.00000000	0.00382807
827.00000000	0.00092728
828.00000000	0.00000000
829.00000000	0.00000000
830.00000000	0.00195945
831.00000000	0.00087877
832.00000000	0.00000000
833.00000000	0.00000000
834.00000000	0.00000000
835.00000000	0.00000000
836.00000000	0.00000000
837.00000000	0.00443955
838.00000000	0.00000000
839.00000000	0.00000000
840.00000000	0.00000000
841.00000000	0.00457228
842.00000000	0.00000000
843.00000000	0.00000000
844.00000000	0.00222083
845.00000000	0.00000000
846.00000000	0.00000000
847.00000000	0.00000000
848.00000000	0.00744819
849.00000000	0.00000000
850.00000000	0.00973074
851.00000000	0.00000000
852.00000000	0.00000000
853.00000000	0.00000000
854.00000000	0.00000000
855.00000000	0.00254042
856.00000000	0.00480428
857.00000000	0.00000000
858.00000000	0.00000000
859.00000000	0.00000000
860.00000000	0.00072158
861.00000000	0.00000000
862.00000000	0.00199474
863.00000000	0.00000000
864.00000000	0.00000000
865.00000000	0.00000000
866.00000000	0.00000000
867.00000000	0.00000000
868.00000000	0.00000000
869.00000000	0.00000000
870.00000000	0.00000000
871.00000000	0.00000000
872.00000000	0.00779182
873.00000000	0.00000000
874.00000000	0.00000000
875.00000000	0.00000000
876.00000000	0.00000000
877.00000000	0.00000000
878.00000000	0.00000000
879.00000000	0.00469123
880.00000000	0.00000000
881.00000000	0.00381148
882.00000000	0.00000000
883.00000000	0.00000000
884.00000000	0.00000000
885.00000000	0.00000000
886.00000000	0.00047426
887.00000000	0.00890526
888.00000000	0.00235736
889.00000000	0.01251539
890.00000000	0.00000000
891.00000000	0.00437234
892.00000000	0.00000000
893.00000000	0.00000000
894.00000000	0.00000000
895.00000000	0.00000000
896.00000000	0.00000000
897.00000000	0.00737563
898.00000000	0.00000000
899.00000000	0.00376817
900.00000000	0.00000000
