#LICA Lamps Spectra Database
#Website 1: https://guaix.fis.ucm.es/lamps_spectra
#Website 2: http://carlostapia.es/lamparas/lamps.html
#Latest update: 2017/12/15
#Tester: Carlos Eugenio Tapia Ayuga
#Correct for Electrical Dark: Yes (JAZA2310)
#Correct for Detector Non-linearity: Yes (JAZA2310)
#Correct for Flux: Yes
#Start wavelength (nm): 300
#End wavelength (nm): 900
#Steps (nm):	1
#Locus: D65 sRGB Gamma 1 CIE1931
#XYZ coordinates: 0.2100	0.2073	0.1841
#xyY coordinates: 0.3492	0.3447	0.2073
#sRGB: 69	49	42
#CCT Lindbloom (K):	4813
#CCT McCamy (K):	4821
#CCT Hernández-Andrés (K):	4842
#Melatonin: 0.843
#Chlorophyll a: 0.212
#Chlorophyll b: 0.766
#Beta Carotene: 0.217
#Manufacturer: Unknown
#Luminance manufacturer: Unknown
#Other data:
#Begin Processed Spectral Data
W	S
300.00000000	0.00000000
301.00000000	0.00000000
302.00000000	0.00000000
303.00000000	0.00000000
304.00000000	0.00000000
305.00000000	0.00000000
306.00000000	0.00000000
307.00000000	0.00000000
308.00000000	0.00000000
309.00000000	0.00000000
310.00000000	0.00000000
311.00000000	0.00000000
312.00000000	0.00000000
313.00000000	0.00000000
314.00000000	0.00000000
315.00000000	0.00000000
316.00000000	0.00000000
317.00000000	0.00000000
318.00000000	0.00000000
319.00000000	0.00000000
320.00000000	0.00000000
321.00000000	0.00000000
322.00000000	0.00000000
323.00000000	0.00153337
324.00000000	0.00000000
325.00000000	0.00000000
326.00000000	0.00000000
327.00000000	0.00000000
328.00000000	0.00000000
329.00000000	0.00000000
330.00000000	0.00000000
331.00000000	0.00000000
332.00000000	0.00000000
333.00000000	0.00000000
334.00000000	0.00000000
335.00000000	0.00000000
336.00000000	0.00000000
337.00000000	0.00000000
338.00000000	0.00000000
339.00000000	0.00000000
340.00000000	0.00000000
341.00000000	0.00000000
342.00000000	0.00195897
343.00000000	0.00118202
344.00000000	0.00000000
345.00000000	0.00266307
346.00000000	0.00150560
347.00000000	0.00489028
348.00000000	0.00300879
349.00000000	0.00277395
350.00000000	0.00225538
351.00000000	0.00000000
352.00000000	0.00408536
353.00000000	0.00511908
354.00000000	0.00710341
355.00000000	0.00861223
356.00000000	0.01924802
357.00000000	0.03583418
358.00000000	0.04415422
359.00000000	0.03780401
360.00000000	0.02608319
361.00000000	0.03328701
362.00000000	0.04007751
363.00000000	0.05524559
364.00000000	0.10869340
365.00000000	0.20005590
366.00000000	0.18049457
367.00000000	0.09612379
368.00000000	0.04523220
369.00000000	0.02912699
370.00000000	0.02968741
371.00000000	0.02846052
372.00000000	0.03409434
373.00000000	0.03217964
374.00000000	0.03283203
375.00000000	0.03173553
376.00000000	0.03148983
377.00000000	0.03194461
378.00000000	0.03302702
379.00000000	0.03731321
380.00000000	0.03995053
381.00000000	0.04335071
382.00000000	0.04309977
383.00000000	0.05375489
384.00000000	0.05747462
385.00000000	0.04820517
386.00000000	0.04615766
387.00000000	0.05394525
388.00000000	0.06047897
389.00000000	0.05953098
390.00000000	0.10054984
391.00000000	0.21688172
392.00000000	0.20217908
393.00000000	0.15288364
394.00000000	0.11713298
395.00000000	0.10257401
396.00000000	0.10045043
397.00000000	0.09436122
398.00000000	0.07586560
399.00000000	0.08824364
400.00000000	0.11293392
401.00000000	0.12904497
402.00000000	0.26709577
403.00000000	0.30947816
404.00000000	0.31535527
405.00000000	0.39302993
406.00000000	0.27767220
407.00000000	0.18257367
408.00000000	0.20900016
409.00000000	0.20151482
410.00000000	0.14434124
411.00000000	0.10596533
412.00000000	0.09097372
413.00000000	0.12027779
414.00000000	0.16655337
415.00000000	0.17763529
416.00000000	0.19490261
417.00000000	0.18393781
418.00000000	0.13345975
419.00000000	0.10524533
420.00000000	0.09950968
421.00000000	0.11756582
422.00000000	0.13558433
423.00000000	0.17061218
424.00000000	0.23467646
425.00000000	0.28001411
426.00000000	0.20593120
427.00000000	0.14828474
428.00000000	0.13390466
429.00000000	0.13953024
430.00000000	0.14788007
431.00000000	0.20117293
432.00000000	0.28561292
433.00000000	0.23822313
434.00000000	0.18792397
435.00000000	0.28903081
436.00000000	0.61871263
437.00000000	0.48277856
438.00000000	0.36306401
439.00000000	0.22671521
440.00000000	0.21218824
441.00000000	0.20561930
442.00000000	0.20333715
443.00000000	0.17937331
444.00000000	0.16591628
445.00000000	0.15205880
446.00000000	0.13375958
447.00000000	0.11827355
448.00000000	0.12847126
449.00000000	0.13439184
450.00000000	0.12514433
451.00000000	0.11581633
452.00000000	0.12456499
453.00000000	0.13125105
454.00000000	0.12912767
455.00000000	0.13518207
456.00000000	0.13986670
457.00000000	0.14275515
458.00000000	0.12984948
459.00000000	0.10544314
460.00000000	0.12974283
461.00000000	0.12750355
462.00000000	0.09085158
463.00000000	0.06722460
464.00000000	0.05829282
465.00000000	0.05772313
466.00000000	0.06389465
467.00000000	0.09050063
468.00000000	0.09235396
469.00000000	0.08960939
470.00000000	0.10071746
471.00000000	0.15308044
472.00000000	0.16942130
473.00000000	0.33715972
474.00000000	0.57042737
475.00000000	0.47775708
476.00000000	0.29827510
477.00000000	0.16844896
478.00000000	0.14198444
479.00000000	0.11433065
480.00000000	0.09836710
481.00000000	0.09284294
482.00000000	0.09032657
483.00000000	0.11426767
484.00000000	0.14085977
485.00000000	0.12916269
486.00000000	0.10350450
487.00000000	0.08256916
488.00000000	0.07962477
489.00000000	0.07054670
490.00000000	0.06727450
491.00000000	0.07977267
492.00000000	0.08346745
493.00000000	0.08166705
494.00000000	0.08654908
495.00000000	0.08981826
496.00000000	0.08643277
497.00000000	0.08709804
498.00000000	0.12948043
499.00000000	0.13520904
500.00000000	0.11050024
501.00000000	0.08662394
502.00000000	0.10779290
503.00000000	0.11908611
504.00000000	0.10416372
505.00000000	0.08703847
506.00000000	0.11871907
507.00000000	0.25485819
508.00000000	0.56910529
509.00000000	0.75777662
510.00000000	0.53411688
511.00000000	0.37714627
512.00000000	0.21800458
513.00000000	0.11118040
514.00000000	0.07463548
515.00000000	0.06164812
516.00000000	0.06191857
517.00000000	0.05071169
518.00000000	0.04781901
519.00000000	0.04388276
520.00000000	0.05289966
521.00000000	0.09115201
522.00000000	0.10928884
523.00000000	0.08420778
524.00000000	0.07669527
525.00000000	0.06181675
526.00000000	0.08163747
527.00000000	0.05844998
528.00000000	0.06375781
529.00000000	0.07541746
530.00000000	0.06068866
531.00000000	0.05983806
532.00000000	0.05756034
533.00000000	0.06480320
534.00000000	0.12087565
535.00000000	0.24070550
536.00000000	0.24422340
537.00000000	0.16540013
538.00000000	0.15486374
539.00000000	0.13956224
540.00000000	0.12721901
541.00000000	0.08489518
542.00000000	0.08334410
543.00000000	0.08765404
544.00000000	0.11933664
545.00000000	0.20920803
546.00000000	0.74581573
547.00000000	0.67245202
548.00000000	0.53811994
549.00000000	0.45905439
550.00000000	0.20003397
551.00000000	0.19594377
552.00000000	0.29106585
553.00000000	0.22317759
554.00000000	0.15949806
555.00000000	0.12610480
556.00000000	0.09164965
557.00000000	0.08061985
558.00000000	0.07047647
559.00000000	0.08607499
560.00000000	0.07500051
561.00000000	0.06545720
562.00000000	0.05940481
563.00000000	0.05575571
564.00000000	0.05979318
565.00000000	0.07793545
566.00000000	0.09687197
567.00000000	0.26907184
568.00000000	0.33537461
569.00000000	0.43924393
570.00000000	0.42780523
571.00000000	0.46366235
572.00000000	0.40004681
573.00000000	0.25525320
574.00000000	0.16000516
575.00000000	0.10689823
576.00000000	0.14652478
577.00000000	0.33498483
578.00000000	0.26792302
579.00000000	0.39090555
580.00000000	0.31043621
581.00000000	0.18827491
582.00000000	0.13438138
583.00000000	0.07927765
584.00000000	0.05603643
585.00000000	0.05405633
586.00000000	0.05977387
587.00000000	0.08317668
588.00000000	0.26439688
589.00000000	0.65918334
590.00000000	0.92562853
591.00000000	0.91599647
592.00000000	0.73244744
593.00000000	0.56117342
594.00000000	0.40725526
595.00000000	0.30083695
596.00000000	0.24958597
597.00000000	0.22210041
598.00000000	0.18910599
599.00000000	0.17783994
600.00000000	0.15212782
601.00000000	0.12998954
602.00000000	0.12362082
603.00000000	0.11734326
604.00000000	0.10405929
605.00000000	0.09271919
606.00000000	0.08414560
607.00000000	0.07629080
608.00000000	0.07378468
609.00000000	0.08160628
610.00000000	0.32486237
611.00000000	0.44597688
612.00000000	0.22418716
613.00000000	0.19498854
614.00000000	0.12250943
615.00000000	0.09039338
616.00000000	0.08105089
617.00000000	0.07448275
618.00000000	0.07229639
619.00000000	0.08101607
620.00000000	0.09465683
621.00000000	0.17459874
622.00000000	0.13931050
623.00000000	0.11843674
624.00000000	0.20746598
625.00000000	0.17051015
626.00000000	0.20455842
627.00000000	0.16051970
628.00000000	0.14176067
629.00000000	0.11286691
630.00000000	0.15090596
631.00000000	0.23271950
632.00000000	0.13080754
633.00000000	0.11435158
634.00000000	0.09007926
635.00000000	0.06624078
636.00000000	0.05221085
637.00000000	0.05593239
638.00000000	0.08055506
639.00000000	0.06050192
640.00000000	0.05414145
641.00000000	0.07577344
642.00000000	0.07620487
643.00000000	0.05843327
644.00000000	0.06393912
645.00000000	0.06406770
646.00000000	0.06549885
647.00000000	0.05704640
648.00000000	0.05195730
649.00000000	0.05065213
650.00000000	0.04592444
651.00000000	0.04139174
652.00000000	0.04118648
653.00000000	0.04685412
654.00000000	0.04332777
655.00000000	0.04078241
656.00000000	0.04259207
657.00000000	0.03829360
658.00000000	0.04277096
659.00000000	0.05408369
660.00000000	0.05153190
661.00000000	0.04695896
662.00000000	0.04293336
663.00000000	0.03800444
664.00000000	0.03714217
665.00000000	0.03853025
666.00000000	0.04389664
667.00000000	0.04701912
668.00000000	0.05776298
669.00000000	0.10497065
670.00000000	0.42820568
671.00000000	1.00000000
672.00000000	0.84166766
673.00000000	0.61083610
674.00000000	0.47413736
675.00000000	0.28090616
676.00000000	0.16924683
677.00000000	0.12245007
678.00000000	0.09789240
679.00000000	0.08399669
680.00000000	0.07815439
681.00000000	0.07185912
682.00000000	0.07919474
683.00000000	0.08416693
684.00000000	0.07876190
685.00000000	0.06508593
686.00000000	0.06002822
687.00000000	0.05316408
688.00000000	0.05615857
689.00000000	0.05528121
690.00000000	0.04910990
691.00000000	0.05711723
692.00000000	0.05246480
693.00000000	0.04667724
694.00000000	0.05033016
695.00000000	0.04973955
696.00000000	0.04736604
697.00000000	0.04672332
698.00000000	0.04710666
699.00000000	0.05465720
700.00000000	0.05614710
701.00000000	0.05820890
702.00000000	0.05355909
703.00000000	0.04733485
704.00000000	0.03928667
705.00000000	0.03644732
706.00000000	0.03368162
707.00000000	0.03610000
708.00000000	0.03509063
709.00000000	0.03760540
710.00000000	0.03372428
711.00000000	0.03317231
712.00000000	0.03210821
713.00000000	0.03472641
714.00000000	0.03239516
715.00000000	0.03095878
716.00000000	0.03347436
717.00000000	0.03935529
718.00000000	0.03061428
719.00000000	0.03091411
720.00000000	0.03188645
721.00000000	0.02931675
722.00000000	0.03182387
723.00000000	0.02618702
724.00000000	0.02971760
725.00000000	0.02821683
726.00000000	0.02774776
727.00000000	0.02671022
728.00000000	0.02726763
729.00000000	0.02648444
730.00000000	0.02561774
731.00000000	0.02529417
732.00000000	0.02453432
733.00000000	0.02728815
734.00000000	0.02446752
735.00000000	0.02409081
736.00000000	0.02209844
737.00000000	0.02358593
738.00000000	0.02681345
739.00000000	0.02710705
740.00000000	0.02622566
741.00000000	0.02399121
742.00000000	0.02727326
743.00000000	0.02422886
744.00000000	0.02632487
745.00000000	0.02380406
746.00000000	0.02497542
747.00000000	0.02593891
748.00000000	0.02513077
749.00000000	0.02696115
750.00000000	0.02489050
751.00000000	0.02434054
752.00000000	0.02825184
753.00000000	0.02767029
754.00000000	0.02564069
755.00000000	0.02890000
756.00000000	0.03185325
757.00000000	0.02902939
758.00000000	0.03016896
759.00000000	0.03156469
760.00000000	0.02919843
761.00000000	0.02718432
762.00000000	0.02421538
763.00000000	0.02415802
764.00000000	0.02785743
765.00000000	0.03041868
766.00000000	0.04256350
767.00000000	0.05805335
768.00000000	0.03923113
769.00000000	0.04295086
770.00000000	0.05806663
771.00000000	0.04266854
772.00000000	0.03246076
773.00000000	0.03643082
774.00000000	0.04073995
775.00000000	0.03973843
776.00000000	0.03313005
777.00000000	0.02973672
778.00000000	0.02564149
779.00000000	0.03381403
780.00000000	0.03327373
781.00000000	0.02939080
782.00000000	0.03088372
783.00000000	0.03091170
784.00000000	0.03142322
785.00000000	0.03620424
786.00000000	0.03664654
787.00000000	0.03728404
788.00000000	0.03465638
789.00000000	0.03690733
790.00000000	0.03169629
791.00000000	0.02820194
792.00000000	0.02719217
793.00000000	0.02530785
794.00000000	0.02523400
795.00000000	0.02723100
796.00000000	0.02396424
797.00000000	0.02349175
798.00000000	0.02681164
799.00000000	0.02906904
800.00000000	0.02496033
801.00000000	0.02343782
802.00000000	0.02436247
803.00000000	0.02686597
804.00000000	0.02700945
805.00000000	0.02781698
806.00000000	0.02920969
807.00000000	0.03191623
808.00000000	0.03394221
809.00000000	0.03527154
810.00000000	0.02473716
811.00000000	0.02787534
812.00000000	0.06624441
813.00000000	0.14541621
814.00000000	0.10126441
815.00000000	0.06874851
816.00000000	0.05622880
817.00000000	0.04413007
818.00000000	0.18309123
819.00000000	0.45498714
820.00000000	0.53381725
821.00000000	0.33793908
822.00000000	0.22575796
823.00000000	0.12338719
824.00000000	0.06722761
825.00000000	0.04119735
826.00000000	0.02828323
827.00000000	0.02961135
828.00000000	0.02748073
829.00000000	0.01902144
830.00000000	0.02272366
831.00000000	0.02309553
832.00000000	0.01835496
833.00000000	0.02481444
834.00000000	0.02399583
835.00000000	0.02113898
836.00000000	0.01965551
837.00000000	0.02224976
838.00000000	0.02164849
839.00000000	0.01748102
840.00000000	0.02340623
841.00000000	0.02063731
842.00000000	0.03078895
843.00000000	0.01258551
844.00000000	0.02623713
845.00000000	0.01687935
846.00000000	0.01752187
847.00000000	0.02439548
848.00000000	0.02459268
849.00000000	0.02947391
850.00000000	0.02492370
851.00000000	0.02713341
852.00000000	0.02254859
853.00000000	0.01773196
854.00000000	0.02315912
855.00000000	0.01721822
856.00000000	0.01848697
857.00000000	0.02846233
858.00000000	0.02270313
859.00000000	0.02838988
860.00000000	0.02113294
861.00000000	0.02578054
862.00000000	0.03050662
863.00000000	0.02727346
864.00000000	0.02853014
865.00000000	0.02015537
866.00000000	0.03399876
867.00000000	0.02359096
868.00000000	0.02604496
869.00000000	0.02717768
870.00000000	0.02920527
871.00000000	0.03771286
872.00000000	0.02124382
873.00000000	0.04000043
874.00000000	0.04403589
875.00000000	0.03725305
876.00000000	0.04023628
877.00000000	0.04277539
878.00000000	0.03005466
879.00000000	0.03464370
880.00000000	0.05021848
881.00000000	0.03005244
882.00000000	0.04000305
883.00000000	0.04880745
884.00000000	0.04964336
885.00000000	0.03414747
886.00000000	0.04448262
887.00000000	0.03546733
888.00000000	0.04426510
889.00000000	0.04887889
890.00000000	0.04809470
891.00000000	0.05088495
892.00000000	0.05925771
893.00000000	0.04920066
894.00000000	0.03865622
895.00000000	0.06237214
896.00000000	0.05686207
897.00000000	0.05738064
898.00000000	0.07189393
899.00000000	0.07052557
900.00000000	0.06193970
