#LICA Lamps Spectra Database
#Website 1: https://guaix.fis.ucm.es/lamps_spectra
#Website 2: http://carlostapia.es/lamparas/lamps.html
#Latest update: 2018/04/15
#Tester: Carlos Eugenio Tapia Ayuga
#Correct for Electrical Dark: Yes (JAZA2310)
#Correct for Detector Non-linearity: Yes (JAZA2310)
#Correct for Flux: Yes
#Start wavelength (nm): 300
#End wavelength (nm): 900
#Steps (nm):	1
#Locus: D65 sRGB Gamma 1 CIE1931
#XYZ coordinates: 0.1636	0.1332	0.0250
#xyY coordinates: 0.5083	0.4141	0.1332
#sRGB: 80	24	2
#CCT Lindbloom (K):	2165
#CCT McCamy (K):	2146
#CCT Hernández-Andrés (K):	1933
#Melatonin: 0.221
#Chlorophyll a: 5.783
#Chlorophyll b: 0.559
#Beta Carotene: 5.757
#Manufacturer: Umknowm
#Luminance manufacturer: Unknown
#Other data: Propane lighter
#Begin Processed Spectral Data
W	S
300.00000000	0.00534298
301.00000000	0.00539852
302.00000000	0.00504318
303.00000000	0.00716272
304.00000000	0.00627632
305.00000000	0.00821905
306.00000000	0.00678919
307.00000000	0.00819089
308.00000000	0.01019909
309.00000000	0.01240779
310.00000000	0.01317490
311.00000000	0.01298167
312.00000000	0.00988771
313.00000000	0.01062018
314.00000000	0.00916645
315.00000000	0.01142470
316.00000000	0.00774959
317.00000000	0.00713715
318.00000000	0.00638185
319.00000000	0.00660052
320.00000000	0.00493190
321.00000000	0.00618491
322.00000000	0.00457220
323.00000000	0.00644399
324.00000000	0.00628000
325.00000000	0.00556248
326.00000000	0.00609066
327.00000000	0.00498986
328.00000000	0.00461305
329.00000000	0.00514682
330.00000000	0.00471900
331.00000000	0.00333727
332.00000000	0.00528975
333.00000000	0.00480166
334.00000000	0.00526134
335.00000000	0.00562317
336.00000000	0.00587131
337.00000000	0.00605598
338.00000000	0.00380140
339.00000000	0.00543824
340.00000000	0.00466211
341.00000000	0.00459540
342.00000000	0.00413900
343.00000000	0.00469440
344.00000000	0.00482809
345.00000000	0.00398539
346.00000000	0.00511095
347.00000000	0.00461137
348.00000000	0.00449570
349.00000000	0.00527009
350.00000000	0.00496929
351.00000000	0.00405237
352.00000000	0.00469333
353.00000000	0.00468400
354.00000000	0.00448745
355.00000000	0.00461625
356.00000000	0.00439733
357.00000000	0.00408376
358.00000000	0.00462452
359.00000000	0.00409692
360.00000000	0.00438396
361.00000000	0.00426044
362.00000000	0.00448380
363.00000000	0.00456098
364.00000000	0.00522058
365.00000000	0.00424819
366.00000000	0.00429690
367.00000000	0.00427276
368.00000000	0.00461443
369.00000000	0.00409663
370.00000000	0.00445529
371.00000000	0.00446382
372.00000000	0.00451603
373.00000000	0.00435443
374.00000000	0.00417865
375.00000000	0.00457033
376.00000000	0.00463573
377.00000000	0.00437197
378.00000000	0.00404722
379.00000000	0.00474944
380.00000000	0.00450205
381.00000000	0.00474616
382.00000000	0.00493020
383.00000000	0.00492493
384.00000000	0.00507904
385.00000000	0.00520474
386.00000000	0.00547220
387.00000000	0.00468313
388.00000000	0.00574623
389.00000000	0.00540616
390.00000000	0.00537629
391.00000000	0.00568323
392.00000000	0.00586848
393.00000000	0.00558725
394.00000000	0.00556436
395.00000000	0.00587384
396.00000000	0.00555847
397.00000000	0.00660080
398.00000000	0.00618507
399.00000000	0.00654601
400.00000000	0.00663004
401.00000000	0.00681801
402.00000000	0.00682690
403.00000000	0.00705679
404.00000000	0.00708025
405.00000000	0.00687336
406.00000000	0.00719488
407.00000000	0.00734621
408.00000000	0.00781367
409.00000000	0.00797124
410.00000000	0.00798499
411.00000000	0.00868022
412.00000000	0.00816752
413.00000000	0.00873421
414.00000000	0.00873864
415.00000000	0.00927298
416.00000000	0.00941505
417.00000000	0.00956376
418.00000000	0.00966084
419.00000000	0.00966259
420.00000000	0.00978757
421.00000000	0.00986632
422.00000000	0.01068459
423.00000000	0.01090812
424.00000000	0.01145081
425.00000000	0.01166570
426.00000000	0.01227848
427.00000000	0.01252058
428.00000000	0.01223670
429.00000000	0.01340203
430.00000000	0.01440736
431.00000000	0.01550341
432.00000000	0.01519407
433.00000000	0.01427561
434.00000000	0.01419454
435.00000000	0.01417839
436.00000000	0.01463203
437.00000000	0.01470287
438.00000000	0.01543894
439.00000000	0.01563599
440.00000000	0.01598859
441.00000000	0.01660899
442.00000000	0.01592065
443.00000000	0.01648886
444.00000000	0.01693622
445.00000000	0.01752359
446.00000000	0.01735134
447.00000000	0.01778350
448.00000000	0.01899822
449.00000000	0.01941632
450.00000000	0.01959055
451.00000000	0.01952971
452.00000000	0.01980164
453.00000000	0.02109502
454.00000000	0.02112992
455.00000000	0.02172154
456.00000000	0.02170030
457.00000000	0.02201968
458.00000000	0.02233314
459.00000000	0.02330188
460.00000000	0.02317875
461.00000000	0.02390953
462.00000000	0.02496532
463.00000000	0.02458879
464.00000000	0.02536919
465.00000000	0.02664143
466.00000000	0.02654349
467.00000000	0.02702969
468.00000000	0.02772327
469.00000000	0.02843609
470.00000000	0.02930109
471.00000000	0.02995301
472.00000000	0.03113263
473.00000000	0.03085474
474.00000000	0.03172677
475.00000000	0.03234586
476.00000000	0.03234046
477.00000000	0.03347722
478.00000000	0.03362606
479.00000000	0.03397121
480.00000000	0.03539485
481.00000000	0.03560209
482.00000000	0.03633444
483.00000000	0.03643545
484.00000000	0.03765969
485.00000000	0.03811074
486.00000000	0.03900743
487.00000000	0.03914038
488.00000000	0.03968792
489.00000000	0.04108550
490.00000000	0.04159833
491.00000000	0.04239085
492.00000000	0.04253904
493.00000000	0.04271547
494.00000000	0.04396908
495.00000000	0.04464449
496.00000000	0.04574328
497.00000000	0.04671255
498.00000000	0.04693345
499.00000000	0.04813289
500.00000000	0.04862390
501.00000000	0.04977564
502.00000000	0.05021461
503.00000000	0.05145897
504.00000000	0.05168041
505.00000000	0.05387969
506.00000000	0.05400634
507.00000000	0.05491035
508.00000000	0.05609064
509.00000000	0.05682702
510.00000000	0.05830053
511.00000000	0.05926370
512.00000000	0.06087853
513.00000000	0.06107619
514.00000000	0.06309129
515.00000000	0.06363827
516.00000000	0.06464550
517.00000000	0.06507528
518.00000000	0.06561344
519.00000000	0.06640161
520.00000000	0.06691858
521.00000000	0.06732611
522.00000000	0.06909076
523.00000000	0.07076573
524.00000000	0.07098033
525.00000000	0.07199766
526.00000000	0.07331708
527.00000000	0.07412245
528.00000000	0.07621516
529.00000000	0.07718685
530.00000000	0.07751777
531.00000000	0.07875359
532.00000000	0.07957046
533.00000000	0.08079275
534.00000000	0.08050476
535.00000000	0.08355364
536.00000000	0.08433223
537.00000000	0.08508243
538.00000000	0.08618079
539.00000000	0.08729865
540.00000000	0.08792435
541.00000000	0.08996386
542.00000000	0.09179510
543.00000000	0.09318836
544.00000000	0.09353391
545.00000000	0.09471122
546.00000000	0.09659780
547.00000000	0.09745871
548.00000000	0.09904510
549.00000000	0.10031375
550.00000000	0.10117957
551.00000000	0.10293551
552.00000000	0.10430663
553.00000000	0.10576406
554.00000000	0.10707824
555.00000000	0.10880946
556.00000000	0.11042659
557.00000000	0.11257459
558.00000000	0.11339225
559.00000000	0.11561917
560.00000000	0.11660523
561.00000000	0.11814983
562.00000000	0.11935930
563.00000000	0.12100566
564.00000000	0.12159554
565.00000000	0.12283687
566.00000000	0.12423868
567.00000000	0.12725932
568.00000000	0.12696345
569.00000000	0.12913552
570.00000000	0.12853265
571.00000000	0.13114624
572.00000000	0.13302220
573.00000000	0.13512257
574.00000000	0.13578044
575.00000000	0.13665702
576.00000000	0.13860915
577.00000000	0.14030567
578.00000000	0.14198374
579.00000000	0.14335654
580.00000000	0.14412482
581.00000000	0.14497889
582.00000000	0.14825386
583.00000000	0.15036446
584.00000000	0.15109109
585.00000000	0.15419838
586.00000000	0.15650419
587.00000000	0.15902727
588.00000000	0.15931205
589.00000000	0.16113849
590.00000000	0.16248930
591.00000000	0.16296122
592.00000000	0.16715897
593.00000000	0.16710123
594.00000000	0.16915094
595.00000000	0.17058335
596.00000000	0.17285154
597.00000000	0.17444805
598.00000000	0.17637227
599.00000000	0.17801238
600.00000000	0.17999666
601.00000000	0.18261649
602.00000000	0.18530467
603.00000000	0.18728249
604.00000000	0.18845744
605.00000000	0.19041730
606.00000000	0.19072519
607.00000000	0.19127986
608.00000000	0.19398010
609.00000000	0.19470987
610.00000000	0.19740809
611.00000000	0.19862965
612.00000000	0.20101269
613.00000000	0.20305360
614.00000000	0.20472083
615.00000000	0.20851353
616.00000000	0.21116512
617.00000000	0.21391082
618.00000000	0.21739185
619.00000000	0.21816303
620.00000000	0.22134539
621.00000000	0.22144700
622.00000000	0.22349399
623.00000000	0.22560130
624.00000000	0.22711599
625.00000000	0.23098671
626.00000000	0.23253221
627.00000000	0.23473750
628.00000000	0.23694818
629.00000000	0.23945137
630.00000000	0.24117578
631.00000000	0.24348616
632.00000000	0.24370573
633.00000000	0.24712463
634.00000000	0.24959439
635.00000000	0.25043361
636.00000000	0.25262305
637.00000000	0.25680009
638.00000000	0.25821315
639.00000000	0.25991117
640.00000000	0.26230095
641.00000000	0.26300725
642.00000000	0.26668842
643.00000000	0.26862783
644.00000000	0.26844196
645.00000000	0.26969171
646.00000000	0.27432933
647.00000000	0.27816514
648.00000000	0.28023942
649.00000000	0.28214431
650.00000000	0.28471401
651.00000000	0.28717033
652.00000000	0.28985233
653.00000000	0.28984679
654.00000000	0.29392703
655.00000000	0.29470874
656.00000000	0.29742610
657.00000000	0.29839570
658.00000000	0.30155111
659.00000000	0.30643849
660.00000000	0.30536713
661.00000000	0.30899895
662.00000000	0.31161536
663.00000000	0.31275061
664.00000000	0.31579947
665.00000000	0.31644061
666.00000000	0.32055462
667.00000000	0.32244609
668.00000000	0.32356037
669.00000000	0.32751912
670.00000000	0.33143100
671.00000000	0.33503637
672.00000000	0.33402569
673.00000000	0.33730880
674.00000000	0.33982064
675.00000000	0.34255242
676.00000000	0.34533542
677.00000000	0.34724382
678.00000000	0.34975592
679.00000000	0.35320496
680.00000000	0.35435458
681.00000000	0.35838415
682.00000000	0.36133675
683.00000000	0.36414758
684.00000000	0.36336172
685.00000000	0.36867475
686.00000000	0.36909633
687.00000000	0.37274608
688.00000000	0.37337781
689.00000000	0.37646510
690.00000000	0.37828541
691.00000000	0.38151930
692.00000000	0.38626787
693.00000000	0.38955729
694.00000000	0.39128185
695.00000000	0.39690116
696.00000000	0.39753297
697.00000000	0.39769174
698.00000000	0.40204645
699.00000000	0.40572120
700.00000000	0.40827390
701.00000000	0.41255516
702.00000000	0.42039043
703.00000000	0.42295029
704.00000000	0.42411572
705.00000000	0.42437656
706.00000000	0.42724151
707.00000000	0.42841493
708.00000000	0.42849506
709.00000000	0.43709818
710.00000000	0.44089683
711.00000000	0.44603214
712.00000000	0.44390664
713.00000000	0.44842136
714.00000000	0.45038824
715.00000000	0.45243174
716.00000000	0.45631289
717.00000000	0.45920540
718.00000000	0.46049799
719.00000000	0.46436371
720.00000000	0.47225587
721.00000000	0.47408520
722.00000000	0.47611749
723.00000000	0.48018740
724.00000000	0.48215455
725.00000000	0.48700577
726.00000000	0.48409994
727.00000000	0.48872989
728.00000000	0.49625348
729.00000000	0.49897940
730.00000000	0.49879753
731.00000000	0.50629338
732.00000000	0.50808946
733.00000000	0.51351900
734.00000000	0.51062541
735.00000000	0.51333637
736.00000000	0.51884838
737.00000000	0.52084887
738.00000000	0.52890592
739.00000000	0.53040349
740.00000000	0.53130722
741.00000000	0.53554387
742.00000000	0.53916544
743.00000000	0.53126286
744.00000000	0.53328128
745.00000000	0.52815772
746.00000000	0.53270894
747.00000000	0.53182420
748.00000000	0.53451457
749.00000000	0.53973767
750.00000000	0.54100460
751.00000000	0.54345108
752.00000000	0.54809608
753.00000000	0.55080985
754.00000000	0.55614483
755.00000000	0.55473017
756.00000000	0.56498908
757.00000000	0.57032458
758.00000000	0.57407555
759.00000000	0.57641432
760.00000000	0.58727258
761.00000000	0.59207811
762.00000000	0.59756910
763.00000000	0.59583417
764.00000000	0.60259706
765.00000000	0.60010045
766.00000000	0.60319559
767.00000000	0.60626647
768.00000000	0.61311654
769.00000000	0.61194041
770.00000000	0.61699386
771.00000000	0.61914854
772.00000000	0.62119941
773.00000000	0.62674044
774.00000000	0.62719750
775.00000000	0.63407189
776.00000000	0.63193836
777.00000000	0.64165787
778.00000000	0.64548736
779.00000000	0.64875252
780.00000000	0.65015087
781.00000000	0.65684906
782.00000000	0.66563860
783.00000000	0.66965275
784.00000000	0.67086260
785.00000000	0.67605253
786.00000000	0.67631572
787.00000000	0.68545535
788.00000000	0.68299165
789.00000000	0.69422759
790.00000000	0.69639532
791.00000000	0.69803421
792.00000000	0.71332608
793.00000000	0.70492768
794.00000000	0.70125514
795.00000000	0.70339463
796.00000000	0.70647150
797.00000000	0.70738783
798.00000000	0.71378179
799.00000000	0.71799134
800.00000000	0.71965386
801.00000000	0.72605762
802.00000000	0.72229526
803.00000000	0.72352804
804.00000000	0.73079460
805.00000000	0.72877048
806.00000000	0.72848873
807.00000000	0.73432813
808.00000000	0.73154537
809.00000000	0.73578074
810.00000000	0.74087248
811.00000000	0.75013756
812.00000000	0.75523557
813.00000000	0.75985285
814.00000000	0.76300187
815.00000000	0.76289644
816.00000000	0.76161745
817.00000000	0.76684666
818.00000000	0.76095084
819.00000000	0.77018941
820.00000000	0.77430779
821.00000000	0.78239500
822.00000000	0.78186792
823.00000000	0.80602284
824.00000000	0.80415119
825.00000000	0.80823238
826.00000000	0.80935452
827.00000000	0.81100334
828.00000000	0.81008020
829.00000000	0.81397132
830.00000000	0.81865394
831.00000000	0.81854345
832.00000000	0.81844617
833.00000000	0.82456812
834.00000000	0.82242920
835.00000000	0.83697229
836.00000000	0.82874012
837.00000000	0.83062040
838.00000000	0.82459203
839.00000000	0.82575818
840.00000000	0.83692346
841.00000000	0.82349716
842.00000000	0.82809375
843.00000000	0.84447996
844.00000000	0.84448096
845.00000000	0.84097279
846.00000000	0.84530819
847.00000000	0.85821977
848.00000000	0.86083712
849.00000000	0.85797736
850.00000000	0.85930744
851.00000000	0.85892057
852.00000000	0.86398685
853.00000000	0.87638432
854.00000000	0.87198416
855.00000000	0.87884188
856.00000000	0.86852115
857.00000000	0.88225457
858.00000000	0.88011100
859.00000000	0.88988236
860.00000000	0.89419698
861.00000000	0.90009539
862.00000000	0.88613618
863.00000000	0.89521250
864.00000000	0.89568558
865.00000000	0.90103779
866.00000000	0.90534432
867.00000000	0.91961504
868.00000000	0.92383622
869.00000000	0.92047551
870.00000000	0.92181657
871.00000000	0.92992254
872.00000000	0.93364840
873.00000000	0.93301714
874.00000000	0.93275679
875.00000000	0.93876805
876.00000000	0.94771500
877.00000000	0.94418885
878.00000000	0.95050924
879.00000000	0.92722296
880.00000000	0.93560213
881.00000000	0.94527142
882.00000000	0.93971197
883.00000000	0.94927862
884.00000000	0.96387040
885.00000000	0.95726460
886.00000000	0.95859547
887.00000000	0.95328494
888.00000000	0.97016383
889.00000000	0.97046244
890.00000000	0.96567944
891.00000000	0.97556405
892.00000000	0.97331328
893.00000000	0.97701953
894.00000000	0.95149236
895.00000000	0.98400172
896.00000000	0.96856848
897.00000000	0.97350174
898.00000000	0.98938635
899.00000000	0.98677586
900.00000000	1.00000000
