#LICA Lamps Spectra Database
#Website 1: https://guaix.fis.ucm.es/lamps_spectra
#Website 2: http://carlostapia.es/lamparas/lamps.html
#Latest update: 2017/12/15
#Tester: Carlos Eugenio Tapia Ayuga
#Correct for Electrical Dark: Yes (JAZA2310)
#Correct for Detector Non-linearity: Yes (JAZA2310)
#Correct for Flux: Yes
#Start wavelength (nm): 300
#End wavelength (nm): 900
#Steps (nm):	1
#Locus: D65 sRGB Gamma 1 CIE1931
#XYZ coordinates: 0.7242	0.6832	0.1649
#xyY coordinates: 0.4606	0.4345	0.6832
#sRGB: 255	123	16
#CCT Lindbloom (K):	2870
#CCT McCamy (K):	2873
#CCT Hernández-Andrés (K):	2788
#Melatonin: 0.217
#Chlorophyll a: 0.109
#Chlorophyll b: 0.438
#Beta Carotene: 0.110
#Manufacturer: Unknown
#Luminance manufacturer: Unknown
#Other data:
#Begin Processed Spectral Data
W	S
300.00000000	0.00000000
301.00000000	0.00000000
302.00000000	0.00000000
303.00000000	0.00000000
304.00000000	0.00111079
305.00000000	0.00000000
306.00000000	0.00000000
307.00000000	0.00000000
308.00000000	0.00000000
309.00000000	0.00000000
310.00000000	0.00000000
311.00000000	0.00000000
312.00000000	0.00110804
313.00000000	0.00215195
314.00000000	0.00000000
315.00000000	0.00000000
316.00000000	0.00273264
317.00000000	0.00000000
318.00000000	0.00000000
319.00000000	0.00058515
320.00000000	0.00000000
321.00000000	0.00000000
322.00000000	0.00000000
323.00000000	0.00000000
324.00000000	0.00000000
325.00000000	0.00266421
326.00000000	0.00784635
327.00000000	0.00000000
328.00000000	0.00000000
329.00000000	0.00000000
330.00000000	0.00000000
331.00000000	0.00000000
332.00000000	0.00000000
333.00000000	0.00000000
334.00000000	0.00174533
335.00000000	0.00000000
336.00000000	0.00000000
337.00000000	0.00000000
338.00000000	0.00119156
339.00000000	0.00000000
340.00000000	0.00000000
341.00000000	0.00000000
342.00000000	0.00000000
343.00000000	0.00000000
344.00000000	0.00000000
345.00000000	0.00000000
346.00000000	0.00000000
347.00000000	0.00000000
348.00000000	0.00000000
349.00000000	0.00000000
350.00000000	0.00000000
351.00000000	0.00000000
352.00000000	0.00315898
353.00000000	0.00000000
354.00000000	0.00000000
355.00000000	0.00000000
356.00000000	0.00000000
357.00000000	0.00000000
358.00000000	0.00000000
359.00000000	0.00000000
360.00000000	0.00000000
361.00000000	0.00000000
362.00000000	0.00000000
363.00000000	0.00000000
364.00000000	0.00000000
365.00000000	0.00000000
366.00000000	0.00000000
367.00000000	0.00015709
368.00000000	0.00000000
369.00000000	0.00105111
370.00000000	0.00062254
371.00000000	0.00000000
372.00000000	0.00000000
373.00000000	0.00068513
374.00000000	0.00000000
375.00000000	0.00000000
376.00000000	0.00000000
377.00000000	0.00000000
378.00000000	0.00000000
379.00000000	0.00000000
380.00000000	0.00000000
381.00000000	0.00088716
382.00000000	0.00000000
383.00000000	0.00000000
384.00000000	0.00224199
385.00000000	0.00000000
386.00000000	0.00083914
387.00000000	0.00000000
388.00000000	0.00000000
389.00000000	0.00000000
390.00000000	0.00000000
391.00000000	0.00293020
392.00000000	0.00000000
393.00000000	0.00000000
394.00000000	0.00000000
395.00000000	0.00000000
396.00000000	0.00000000
397.00000000	0.00000000
398.00000000	0.00106260
399.00000000	0.00000000
400.00000000	0.00000000
401.00000000	0.00000000
402.00000000	0.00000000
403.00000000	0.00100823
404.00000000	0.00639805
405.00000000	0.00138793
406.00000000	0.00000000
407.00000000	0.00004528
408.00000000	0.00086623
409.00000000	0.00167690
410.00000000	0.00230218
411.00000000	0.00161996
412.00000000	0.00069456
413.00000000	0.00198251
414.00000000	0.00599658
415.00000000	0.00463592
416.00000000	0.00725451
417.00000000	0.01131180
418.00000000	0.01232963
419.00000000	0.01551348
420.00000000	0.01534095
421.00000000	0.01897721
422.00000000	0.02291136
423.00000000	0.02844627
424.00000000	0.03160782
425.00000000	0.03668363
426.00000000	0.04205201
427.00000000	0.04985103
428.00000000	0.05651833
429.00000000	0.06592222
430.00000000	0.07147496
431.00000000	0.08502223
432.00000000	0.09136368
433.00000000	0.10246351
434.00000000	0.11430163
435.00000000	0.12386758
436.00000000	0.13837969
437.00000000	0.15334506
438.00000000	0.16596213
439.00000000	0.18363802
440.00000000	0.19739983
441.00000000	0.21739779
442.00000000	0.23301743
443.00000000	0.25204352
444.00000000	0.27440060
445.00000000	0.28849357
446.00000000	0.29802694
447.00000000	0.31524288
448.00000000	0.32065276
449.00000000	0.33537066
450.00000000	0.32610535
451.00000000	0.31895339
452.00000000	0.30828986
453.00000000	0.29742001
454.00000000	0.27391287
455.00000000	0.25775816
456.00000000	0.24145476
457.00000000	0.22499976
458.00000000	0.20721788
459.00000000	0.17956135
460.00000000	0.17009333
461.00000000	0.16213448
462.00000000	0.14397085
463.00000000	0.13449613
464.00000000	0.13057724
465.00000000	0.12539031
466.00000000	0.11772094
467.00000000	0.10820147
468.00000000	0.10863175
469.00000000	0.09987767
470.00000000	0.09350174
471.00000000	0.08887234
472.00000000	0.08543296
473.00000000	0.08040757
474.00000000	0.07331341
475.00000000	0.07235903
476.00000000	0.06802289
477.00000000	0.06513899
478.00000000	0.06106370
479.00000000	0.06224429
480.00000000	0.05970304
481.00000000	0.06081623
482.00000000	0.05882583
483.00000000	0.06102168
484.00000000	0.05916402
485.00000000	0.06055675
486.00000000	0.05987162
487.00000000	0.06029813
488.00000000	0.06077936
489.00000000	0.06493782
490.00000000	0.06485362
491.00000000	0.06645540
492.00000000	0.07058077
493.00000000	0.07118976
494.00000000	0.07694881
495.00000000	0.07826677
496.00000000	0.08487131
497.00000000	0.08876498
498.00000000	0.09460224
499.00000000	0.09858184
500.00000000	0.10846077
501.00000000	0.11688146
502.00000000	0.12173844
503.00000000	0.13037608
504.00000000	0.13590893
505.00000000	0.14325622
506.00000000	0.15165427
507.00000000	0.16177896
508.00000000	0.17028729
509.00000000	0.17680265
510.00000000	0.19132676
511.00000000	0.19773407
512.00000000	0.20997127
513.00000000	0.21833348
514.00000000	0.22903732
515.00000000	0.24060533
516.00000000	0.24869160
517.00000000	0.26062148
518.00000000	0.26903051
519.00000000	0.27736082
520.00000000	0.29217442
521.00000000	0.30006433
522.00000000	0.31080092
523.00000000	0.31957833
524.00000000	0.33228406
525.00000000	0.34804089
526.00000000	0.35421720
527.00000000	0.36630313
528.00000000	0.38032630
529.00000000	0.39615911
530.00000000	0.40874256
531.00000000	0.42153952
532.00000000	0.42752975
533.00000000	0.44058894
534.00000000	0.44759255
535.00000000	0.46129621
536.00000000	0.47810176
537.00000000	0.48798824
538.00000000	0.50405000
539.00000000	0.51414416
540.00000000	0.52060001
541.00000000	0.53751840
542.00000000	0.55317988
543.00000000	0.56604475
544.00000000	0.58086110
545.00000000	0.59157505
546.00000000	0.60214307
547.00000000	0.61865175
548.00000000	0.62863804
549.00000000	0.64283270
550.00000000	0.66358440
551.00000000	0.68116185
552.00000000	0.69208967
553.00000000	0.70983810
554.00000000	0.72199315
555.00000000	0.74566253
556.00000000	0.75862002
557.00000000	0.77263187
558.00000000	0.78076667
559.00000000	0.78552109
560.00000000	0.79801999
561.00000000	0.81931122
562.00000000	0.83117867
563.00000000	0.84186175
564.00000000	0.85432207
565.00000000	0.86904066
566.00000000	0.88293898
567.00000000	0.90001137
568.00000000	0.90822695
569.00000000	0.90873287
570.00000000	0.92028699
571.00000000	0.91793576
572.00000000	0.92843586
573.00000000	0.93792773
574.00000000	0.94327501
575.00000000	0.95431087
576.00000000	0.96329888
577.00000000	0.96047003
578.00000000	0.96298161
579.00000000	0.96698864
580.00000000	0.97689827
581.00000000	0.98378955
582.00000000	0.98763041
583.00000000	0.99571222
584.00000000	0.99712656
585.00000000	0.99805796
586.00000000	0.99757074
587.00000000	0.99690310
588.00000000	1.00000000
589.00000000	0.99772526
590.00000000	0.99586280
591.00000000	0.99273897
592.00000000	0.99277464
593.00000000	0.98168923
594.00000000	0.97084407
595.00000000	0.97556214
596.00000000	0.97124864
597.00000000	0.96787168
598.00000000	0.95595656
599.00000000	0.95938050
600.00000000	0.96318826
601.00000000	0.95185314
602.00000000	0.94929028
603.00000000	0.95234397
604.00000000	0.92572912
605.00000000	0.90922644
606.00000000	0.89570593
607.00000000	0.88667539
608.00000000	0.88818165
609.00000000	0.86496108
610.00000000	0.85500377
611.00000000	0.85279900
612.00000000	0.83285420
613.00000000	0.83119719
614.00000000	0.81313166
615.00000000	0.80421585
616.00000000	0.79532114
617.00000000	0.78706491
618.00000000	0.78129729
619.00000000	0.76460973
620.00000000	0.75173508
621.00000000	0.73744455
622.00000000	0.72942516
623.00000000	0.70839649
624.00000000	0.70010425
625.00000000	0.68976519
626.00000000	0.67221775
627.00000000	0.65590801
628.00000000	0.64334257
629.00000000	0.63404192
630.00000000	0.62268313
631.00000000	0.61082581
632.00000000	0.59456185
633.00000000	0.58940767
634.00000000	0.57987928
635.00000000	0.56352134
636.00000000	0.54665166
637.00000000	0.53430694
638.00000000	0.52779981
639.00000000	0.50819372
640.00000000	0.50227157
641.00000000	0.49290129
642.00000000	0.48551576
643.00000000	0.46823243
644.00000000	0.46039860
645.00000000	0.44694892
646.00000000	0.44388203
647.00000000	0.42811953
648.00000000	0.41781546
649.00000000	0.41627610
650.00000000	0.39294302
651.00000000	0.38556572
652.00000000	0.37612925
653.00000000	0.36138030
654.00000000	0.35960650
655.00000000	0.35538870
656.00000000	0.33804843
657.00000000	0.33130069
658.00000000	0.32760492
659.00000000	0.31380213
660.00000000	0.30683384
661.00000000	0.29877518
662.00000000	0.29607461
663.00000000	0.27994083
664.00000000	0.27365065
665.00000000	0.27374000
666.00000000	0.25513064
667.00000000	0.25147878
668.00000000	0.23899051
669.00000000	0.23590665
670.00000000	0.23738684
671.00000000	0.22677647
672.00000000	0.22004022
673.00000000	0.22348801
674.00000000	0.20732009
675.00000000	0.20511944
676.00000000	0.19953548
677.00000000	0.19447151
678.00000000	0.18826708
679.00000000	0.18529108
680.00000000	0.17958211
681.00000000	0.17272272
682.00000000	0.16138195
683.00000000	0.15933187
684.00000000	0.15671224
685.00000000	0.15543030
686.00000000	0.14474516
687.00000000	0.14624404
688.00000000	0.14104510
689.00000000	0.13360915
690.00000000	0.13079059
691.00000000	0.12331828
692.00000000	0.13170570
693.00000000	0.11920200
694.00000000	0.11512190
695.00000000	0.11650606
696.00000000	0.11334124
697.00000000	0.11183172
698.00000000	0.10508176
699.00000000	0.09981902
700.00000000	0.10139508
701.00000000	0.09887493
702.00000000	0.09463328
703.00000000	0.08821774
704.00000000	0.09435288
705.00000000	0.08696066
706.00000000	0.08063532
707.00000000	0.07784129
708.00000000	0.07931805
709.00000000	0.07675657
710.00000000	0.07323350
711.00000000	0.07267767
712.00000000	0.07041185
713.00000000	0.06358351
714.00000000	0.05997023
715.00000000	0.06233758
716.00000000	0.06116763
717.00000000	0.06368246
718.00000000	0.05438816
719.00000000	0.05898275
720.00000000	0.05627326
721.00000000	0.05259327
722.00000000	0.05677283
723.00000000	0.04889510
724.00000000	0.04862619
725.00000000	0.04583250
726.00000000	0.04250305
727.00000000	0.04029091
728.00000000	0.04493386
729.00000000	0.03937048
730.00000000	0.03830874
731.00000000	0.03911203
732.00000000	0.03837580
733.00000000	0.03883661
734.00000000	0.03930754
735.00000000	0.03517257
736.00000000	0.03223327
737.00000000	0.03090674
738.00000000	0.03112849
739.00000000	0.03127683
740.00000000	0.02949978
741.00000000	0.02915884
742.00000000	0.02858655
743.00000000	0.02559358
744.00000000	0.02762137
745.00000000	0.02880127
746.00000000	0.02144472
747.00000000	0.01646821
748.00000000	0.02352155
749.00000000	0.01876181
750.00000000	0.02078222
751.00000000	0.02012865
752.00000000	0.01782252
753.00000000	0.01900019
754.00000000	0.01666303
755.00000000	0.01923892
756.00000000	0.01505455
757.00000000	0.01345791
758.00000000	0.01445706
759.00000000	0.01955808
760.00000000	0.01079267
761.00000000	0.00561054
762.00000000	0.01483109
763.00000000	0.01392644
764.00000000	0.01421988
765.00000000	0.01155618
766.00000000	0.01244694
767.00000000	0.01372236
768.00000000	0.00874242
769.00000000	0.00583623
770.00000000	0.00989283
771.00000000	0.00951862
772.00000000	0.00665804
773.00000000	0.00555737
774.00000000	0.01293330
775.00000000	0.00956852
776.00000000	0.00408627
777.00000000	0.00602196
778.00000000	0.00970092
779.00000000	0.00298989
780.00000000	0.00348654
781.00000000	0.00950216
782.00000000	0.00918540
783.00000000	0.00886418
784.00000000	0.00498046
785.00000000	0.01205421
786.00000000	0.00529207
787.00000000	0.00904374
788.00000000	0.00000000
789.00000000	0.00000000
790.00000000	0.00607015
791.00000000	0.00850627
792.00000000	0.00490637
793.00000000	0.00019636
794.00000000	0.00000000
795.00000000	0.00604288
796.00000000	0.00379112
797.00000000	0.00000000
798.00000000	0.00111490
799.00000000	0.00116224
800.00000000	0.00238690
801.00000000	0.00000000
802.00000000	0.00000000
803.00000000	0.00265461
804.00000000	0.00000000
805.00000000	0.00000000
806.00000000	0.00421403
807.00000000	0.00000000
808.00000000	0.00000000
809.00000000	0.00944951
810.00000000	0.00011610
811.00000000	0.00000000
812.00000000	0.00000000
813.00000000	0.00137884
814.00000000	0.00067947
815.00000000	0.00369988
816.00000000	0.00000000
817.00000000	0.00082302
818.00000000	0.00000000
819.00000000	0.00000000
820.00000000	0.00000000
821.00000000	0.00000000
822.00000000	0.00020460
823.00000000	0.00000000
824.00000000	0.00000000
825.00000000	0.00000000
826.00000000	0.00000000
827.00000000	0.00000000
828.00000000	0.00000000
829.00000000	0.00000000
830.00000000	0.00000000
831.00000000	0.00000000
832.00000000	0.00000000
833.00000000	0.00000000
834.00000000	0.00000000
835.00000000	0.00000000
836.00000000	0.00000000
837.00000000	0.00000000
838.00000000	0.00000000
839.00000000	0.00000000
840.00000000	0.00000000
841.00000000	0.00000000
842.00000000	0.00000000
843.00000000	0.00477586
844.00000000	0.00000000
845.00000000	0.00000000
846.00000000	0.00000000
847.00000000	0.00000000
848.00000000	0.00000000
849.00000000	0.00000000
850.00000000	0.00000000
851.00000000	0.00000000
852.00000000	0.00000000
853.00000000	0.01034369
854.00000000	0.00000000
855.00000000	0.00000000
856.00000000	0.00000000
857.00000000	0.00000000
858.00000000	0.00390448
859.00000000	0.00000000
860.00000000	0.00000000
861.00000000	0.00000000
862.00000000	0.00000000
863.00000000	0.00000000
864.00000000	0.00000000
865.00000000	0.00000000
866.00000000	0.00000000
867.00000000	0.00127971
868.00000000	0.00000000
869.00000000	0.00000000
870.00000000	0.00000000
871.00000000	0.00000000
872.00000000	0.00000000
873.00000000	0.00000000
874.00000000	0.00000000
875.00000000	0.00000000
876.00000000	0.00000000
877.00000000	0.00000000
878.00000000	0.00000000
879.00000000	0.00000000
880.00000000	0.00000000
881.00000000	0.00000000
882.00000000	0.00000000
883.00000000	0.00346493
884.00000000	0.00968960
885.00000000	0.00000000
886.00000000	0.00000000
887.00000000	0.00000000
888.00000000	0.00550455
889.00000000	0.00000000
890.00000000	0.00000000
891.00000000	0.00000000
892.00000000	0.00677861
893.00000000	0.00000000
894.00000000	0.00000000
895.00000000	0.00000000
896.00000000	0.00000000
897.00000000	0.00000000
898.00000000	0.00000000
899.00000000	0.00000000
900.00000000	0.00000000
