#LICA Lamps Spectra Database
#Website 1: https://guaix.fis.ucm.es/lamps_spectra
#Website 2: http://carlostapia.es/lamparas/lamps.html
#Latest update: 2018/04/18
#Tester: Carlos Eugenio Tapia Ayuga
#Correct for Electrical Dark: Yes (JAZA2310)
#Correct for Detector Non-linearity: Yes (JAZA2310)
#Correct for Flux: Yes
#Start wavelength (nm): 300
#End wavelength (nm): 900
#Steps (nm):	1
#Locus: D65 sRGB Gamma 1 CIE1931
#XYZ coordinates: 0.4492	0.4724	0.4705
#xyY coordinates: 0.3227	0.3394	0.4724
#sRGB: 126	120	109
#CCT Lindbloom (K):	5947
#CCT McCamy (K):	5948
#CCT Hernández-Andrés (K):	5945
#Melatonin: 0.710
#Chlorophyll a: 0.094
#Chlorophyll b: 1.015
#Beta Carotene: 0.094
#Manufacturer: Lexman
#Luminance manufacturer: 470lm
#Other data: 5946K. 5W
#Begin Processed Spectral Data
W	S
300.00000000	0.00000000
301.00000000	0.00000000
302.00000000	0.00000000
303.00000000	0.00001558
304.00000000	0.00004737
305.00000000	0.00000053
306.00000000	0.00116144
307.00000000	0.00014323
308.00000000	0.00000000
309.00000000	0.00011758
310.00000000	0.00000000
311.00000000	0.00055413
312.00000000	0.00022648
313.00000000	0.00000000
314.00000000	0.00057238
315.00000000	0.00000000
316.00000000	0.00000000
317.00000000	0.00009880
318.00000000	0.00000820
319.00000000	0.00092759
320.00000000	0.00113532
321.00000000	0.00035785
322.00000000	0.00010155
323.00000000	0.00124175
324.00000000	0.00000000
325.00000000	0.00000000
326.00000000	0.00075645
327.00000000	0.00117390
328.00000000	0.00000000
329.00000000	0.00000000
330.00000000	0.00000000
331.00000000	0.00050753
332.00000000	0.00029689
333.00000000	0.00000000
334.00000000	0.00086464
335.00000000	0.00182782
336.00000000	0.00148553
337.00000000	0.00013073
338.00000000	0.00000000
339.00000000	0.00035337
340.00000000	0.00119119
341.00000000	0.00037855
342.00000000	0.00070166
343.00000000	0.00009178
344.00000000	0.00027843
345.00000000	0.00000000
346.00000000	0.00000000
347.00000000	0.00054388
348.00000000	0.00076260
349.00000000	0.00003665
350.00000000	0.00000134
351.00000000	0.00000000
352.00000000	0.00002233
353.00000000	0.00005002
354.00000000	0.00000380
355.00000000	0.00122785
356.00000000	0.00043214
357.00000000	0.00044540
358.00000000	0.00004630
359.00000000	0.00070266
360.00000000	0.00045996
361.00000000	0.00117677
362.00000000	0.00010401
363.00000000	0.00001980
364.00000000	0.00023825
365.00000000	0.00025245
366.00000000	0.00036722
367.00000000	0.00045444
368.00000000	0.00039798
369.00000000	0.00001622
370.00000000	0.00011817
371.00000000	0.00005049
372.00000000	0.00026974
373.00000000	0.00032454
374.00000000	0.00000000
375.00000000	0.00067091
376.00000000	0.00011648
377.00000000	0.00007327
378.00000000	0.00000007
379.00000000	0.00027765
380.00000000	0.00048707
381.00000000	0.00042989
382.00000000	0.00081110
383.00000000	0.00027066
384.00000000	0.00111181
385.00000000	0.00061435
386.00000000	0.00097037
387.00000000	0.00038209
388.00000000	0.00091416
389.00000000	0.00072585
390.00000000	0.00079269
391.00000000	0.00085190
392.00000000	0.00091188
393.00000000	0.00043873
394.00000000	0.00053256
395.00000000	0.00083282
396.00000000	0.00001131
397.00000000	0.00061167
398.00000000	0.00084559
399.00000000	0.00093506
400.00000000	0.00095384
401.00000000	0.00118728
402.00000000	0.00101252
403.00000000	0.00079650
404.00000000	0.00093085
405.00000000	0.00125305
406.00000000	0.00140272
407.00000000	0.00215105
408.00000000	0.00129843
409.00000000	0.00210040
410.00000000	0.00214541
411.00000000	0.00248023
412.00000000	0.00309076
413.00000000	0.00440389
414.00000000	0.00533870
415.00000000	0.00647540
416.00000000	0.00815640
417.00000000	0.01078593
418.00000000	0.01407979
419.00000000	0.01737267
420.00000000	0.02279967
421.00000000	0.02735428
422.00000000	0.03188453
423.00000000	0.03926014
424.00000000	0.04591841
425.00000000	0.05234214
426.00000000	0.06115615
427.00000000	0.07115873
428.00000000	0.08131519
429.00000000	0.09478145
430.00000000	0.10689870
431.00000000	0.12131309
432.00000000	0.13850625
433.00000000	0.15532336
434.00000000	0.17243273
435.00000000	0.19551441
436.00000000	0.21622903
437.00000000	0.23487025
438.00000000	0.26071936
439.00000000	0.28999207
440.00000000	0.31612905
441.00000000	0.34797608
442.00000000	0.37953919
443.00000000	0.42411046
444.00000000	0.46547683
445.00000000	0.52066308
446.00000000	0.57559733
447.00000000	0.64034254
448.00000000	0.70956829
449.00000000	0.80619238
450.00000000	0.84024691
451.00000000	0.90230526
452.00000000	0.95413101
453.00000000	0.99209264
454.00000000	1.00000000
455.00000000	0.99902859
456.00000000	0.97701772
457.00000000	0.94032180
458.00000000	0.89970667
459.00000000	0.85683591
460.00000000	0.79799786
461.00000000	0.74063127
462.00000000	0.68529583
463.00000000	0.62669632
464.00000000	0.59599490
465.00000000	0.55720589
466.00000000	0.52079536
467.00000000	0.50171019
468.00000000	0.48484793
469.00000000	0.46028483
470.00000000	0.44136658
471.00000000	0.42667177
472.00000000	0.40692475
473.00000000	0.38638407
474.00000000	0.36898968
475.00000000	0.35181969
476.00000000	0.33138107
477.00000000	0.31522474
478.00000000	0.29800388
479.00000000	0.28946755
480.00000000	0.28153967
481.00000000	0.27653671
482.00000000	0.26862318
483.00000000	0.26613941
484.00000000	0.26614564
485.00000000	0.26680479
486.00000000	0.27172506
487.00000000	0.27104648
488.00000000	0.27313002
489.00000000	0.27600370
490.00000000	0.27959734
491.00000000	0.28282886
492.00000000	0.28636475
493.00000000	0.29129894
494.00000000	0.29652027
495.00000000	0.30199998
496.00000000	0.30769627
497.00000000	0.31772973
498.00000000	0.32287986
499.00000000	0.33008438
500.00000000	0.33608126
501.00000000	0.34412791
502.00000000	0.35181898
503.00000000	0.36214966
504.00000000	0.36557879
505.00000000	0.37171877
506.00000000	0.37987304
507.00000000	0.38475087
508.00000000	0.39153459
509.00000000	0.39766093
510.00000000	0.40353253
511.00000000	0.41007689
512.00000000	0.41731525
513.00000000	0.42063991
514.00000000	0.42589194
515.00000000	0.42995668
516.00000000	0.43275187
517.00000000	0.43474200
518.00000000	0.43668804
519.00000000	0.43857028
520.00000000	0.44211107
521.00000000	0.44444403
522.00000000	0.44687736
523.00000000	0.45170878
524.00000000	0.45579079
525.00000000	0.45574737
526.00000000	0.45722447
527.00000000	0.46093000
528.00000000	0.46390090
529.00000000	0.46485187
530.00000000	0.46691586
531.00000000	0.46573545
532.00000000	0.46785813
533.00000000	0.46598820
534.00000000	0.46737822
535.00000000	0.46999984
536.00000000	0.46853883
537.00000000	0.46972670
538.00000000	0.47203792
539.00000000	0.47175623
540.00000000	0.47199465
541.00000000	0.47709304
542.00000000	0.47648305
543.00000000	0.47804556
544.00000000	0.47539957
545.00000000	0.47805651
546.00000000	0.47551690
547.00000000	0.47743982
548.00000000	0.47983771
549.00000000	0.47818389
550.00000000	0.47903805
551.00000000	0.48169869
552.00000000	0.48143642
553.00000000	0.48343654
554.00000000	0.48414218
555.00000000	0.48315247
556.00000000	0.48706528
557.00000000	0.48884725
558.00000000	0.49061483
559.00000000	0.49188493
560.00000000	0.49358261
561.00000000	0.49666159
562.00000000	0.49301681
563.00000000	0.49149515
564.00000000	0.49089032
565.00000000	0.48973172
566.00000000	0.49129503
567.00000000	0.49168016
568.00000000	0.48836166
569.00000000	0.48949006
570.00000000	0.48585023
571.00000000	0.48546998
572.00000000	0.48482837
573.00000000	0.48501363
574.00000000	0.48275234
575.00000000	0.48086043
576.00000000	0.48056025
577.00000000	0.48070341
578.00000000	0.47921850
579.00000000	0.47735863
580.00000000	0.47653278
581.00000000	0.47549824
582.00000000	0.47529322
583.00000000	0.47756066
584.00000000	0.47675678
585.00000000	0.47912235
586.00000000	0.47580847
587.00000000	0.47465323
588.00000000	0.47389391
589.00000000	0.47162034
590.00000000	0.46982243
591.00000000	0.46870947
592.00000000	0.46546417
593.00000000	0.46459812
594.00000000	0.46175060
595.00000000	0.46031404
596.00000000	0.45924153
597.00000000	0.45465983
598.00000000	0.45394612
599.00000000	0.45319025
600.00000000	0.45201381
601.00000000	0.44841320
602.00000000	0.44681698
603.00000000	0.44588617
604.00000000	0.44160648
605.00000000	0.43601565
606.00000000	0.43119378
607.00000000	0.42541360
608.00000000	0.42013680
609.00000000	0.41499951
610.00000000	0.41128463
611.00000000	0.41004240
612.00000000	0.40580224
613.00000000	0.40181410
614.00000000	0.39927017
615.00000000	0.39738996
616.00000000	0.39538412
617.00000000	0.39385205
618.00000000	0.39286873
619.00000000	0.38742491
620.00000000	0.38592143
621.00000000	0.37683272
622.00000000	0.37152005
623.00000000	0.36863137
624.00000000	0.36049364
625.00000000	0.35711295
626.00000000	0.35072351
627.00000000	0.34673735
628.00000000	0.34228398
629.00000000	0.33568550
630.00000000	0.33005924
631.00000000	0.32358895
632.00000000	0.31766119
633.00000000	0.31350311
634.00000000	0.30961371
635.00000000	0.30304608
636.00000000	0.29582642
637.00000000	0.29266067
638.00000000	0.28783064
639.00000000	0.28107750
640.00000000	0.27530872
641.00000000	0.27084308
642.00000000	0.26565532
643.00000000	0.25956544
644.00000000	0.25590869
645.00000000	0.25008110
646.00000000	0.24605961
647.00000000	0.24038792
648.00000000	0.23687022
649.00000000	0.23153844
650.00000000	0.22540598
651.00000000	0.22082406
652.00000000	0.21550655
653.00000000	0.20984332
654.00000000	0.20677991
655.00000000	0.20023252
656.00000000	0.19499293
657.00000000	0.19042396
658.00000000	0.18616578
659.00000000	0.18118623
660.00000000	0.17725130
661.00000000	0.17312404
662.00000000	0.16998480
663.00000000	0.16501279
664.00000000	0.15982781
665.00000000	0.15682831
666.00000000	0.15201116
667.00000000	0.14872387
668.00000000	0.14517449
669.00000000	0.14203210
670.00000000	0.13880866
671.00000000	0.13542063
672.00000000	0.12995749
673.00000000	0.12889646
674.00000000	0.12320515
675.00000000	0.12012774
676.00000000	0.11655794
677.00000000	0.11386187
678.00000000	0.11093099
679.00000000	0.10749978
680.00000000	0.10495911
681.00000000	0.10087202
682.00000000	0.09858968
683.00000000	0.09630461
684.00000000	0.09357985
685.00000000	0.09015080
686.00000000	0.08807432
687.00000000	0.08524815
688.00000000	0.08373079
689.00000000	0.08019503
690.00000000	0.07831886
691.00000000	0.07672248
692.00000000	0.07423969
693.00000000	0.07235267
694.00000000	0.06977787
695.00000000	0.06745940
696.00000000	0.06566821
697.00000000	0.06339792
698.00000000	0.06184670
699.00000000	0.06021307
700.00000000	0.05878951
701.00000000	0.05741899
702.00000000	0.05680626
703.00000000	0.05320719
704.00000000	0.05218943
705.00000000	0.04992715
706.00000000	0.04843420
707.00000000	0.04747439
708.00000000	0.04613865
709.00000000	0.04420336
710.00000000	0.04331659
711.00000000	0.04124906
712.00000000	0.04066371
713.00000000	0.03978245
714.00000000	0.03917699
715.00000000	0.03703375
716.00000000	0.03574051
717.00000000	0.03448756
718.00000000	0.03415944
719.00000000	0.03397304
720.00000000	0.03208803
721.00000000	0.03205980
722.00000000	0.03141637
723.00000000	0.02888541
724.00000000	0.02900592
725.00000000	0.02759595
726.00000000	0.02690113
727.00000000	0.02587239
728.00000000	0.02529589
729.00000000	0.02421516
730.00000000	0.02382148
731.00000000	0.02326309
732.00000000	0.02130181
733.00000000	0.02221384
734.00000000	0.02076449
735.00000000	0.02031513
736.00000000	0.02040038
737.00000000	0.01914941
738.00000000	0.01886945
739.00000000	0.01730363
740.00000000	0.01689476
741.00000000	0.01768890
742.00000000	0.01723584
743.00000000	0.01622330
744.00000000	0.01543315
745.00000000	0.01492067
746.00000000	0.01416851
747.00000000	0.01361927
748.00000000	0.01410605
749.00000000	0.01278207
750.00000000	0.01229187
751.00000000	0.01189724
752.00000000	0.01219116
753.00000000	0.01190612
754.00000000	0.01057727
755.00000000	0.00996601
756.00000000	0.01037387
757.00000000	0.00980679
758.00000000	0.00952510
759.00000000	0.00935226
760.00000000	0.00882574
761.00000000	0.00871370
762.00000000	0.00778337
763.00000000	0.00761773
764.00000000	0.00881442
765.00000000	0.00696184
766.00000000	0.00800614
767.00000000	0.00656489
768.00000000	0.00695271
769.00000000	0.00621234
770.00000000	0.00597731
771.00000000	0.00559567
772.00000000	0.00634955
773.00000000	0.00461650
774.00000000	0.00590460
775.00000000	0.00601054
776.00000000	0.00549879
777.00000000	0.00445846
778.00000000	0.00498922
779.00000000	0.00528446
780.00000000	0.00524823
781.00000000	0.00490369
782.00000000	0.00473996
783.00000000	0.00425185
784.00000000	0.00220901
785.00000000	0.00305972
786.00000000	0.00371151
787.00000000	0.00332920
788.00000000	0.00249666
789.00000000	0.00306212
790.00000000	0.00364677
791.00000000	0.00297069
792.00000000	0.00396416
793.00000000	0.00181611
794.00000000	0.00263987
795.00000000	0.00151697
796.00000000	0.00260860
797.00000000	0.00166425
798.00000000	0.00196719
799.00000000	0.00264668
800.00000000	0.00231519
801.00000000	0.00186555
802.00000000	0.00235025
803.00000000	0.00307783
804.00000000	0.00282071
805.00000000	0.00278065
806.00000000	0.00171617
807.00000000	0.00111807
808.00000000	0.00089098
809.00000000	0.00357923
810.00000000	0.00063577
811.00000000	0.00000415
812.00000000	0.00189500
813.00000000	0.00226613
814.00000000	0.00028280
815.00000000	0.00117341
816.00000000	0.00078201
817.00000000	0.00162149
818.00000000	0.00077048
819.00000000	0.00012203
820.00000000	0.00010121
821.00000000	0.00065722
822.00000000	0.00000000
823.00000000	0.00010977
824.00000000	0.00000287
825.00000000	0.00018946
826.00000000	0.00009197
827.00000000	0.00032986
828.00000000	0.00025789
829.00000000	0.00000000
830.00000000	0.00000000
831.00000000	0.00138296
832.00000000	0.00018442
833.00000000	0.00000000
834.00000000	0.00000000
835.00000000	0.00000120
836.00000000	0.00072820
837.00000000	0.00052599
838.00000000	0.00000000
839.00000000	0.00000000
840.00000000	0.00114416
841.00000000	0.00000000
842.00000000	0.00048539
843.00000000	0.00000000
844.00000000	0.00000000
845.00000000	0.00000000
846.00000000	0.00000000
847.00000000	0.00091667
848.00000000	0.00095985
849.00000000	0.00000000
850.00000000	0.00000025
851.00000000	0.00000000
852.00000000	0.00000000
853.00000000	0.00000000
854.00000000	0.00000000
855.00000000	0.00000000
856.00000000	0.00000000
857.00000000	0.00000000
858.00000000	0.00027264
859.00000000	0.00024494
860.00000000	0.00000000
861.00000000	0.00021129
862.00000000	0.00124774
863.00000000	0.00000000
864.00000000	0.00000000
865.00000000	0.00000000
866.00000000	0.00000000
867.00000000	0.00000000
868.00000000	0.00028928
869.00000000	0.00000000
870.00000000	0.00000000
871.00000000	0.00000000
872.00000000	0.00000000
873.00000000	0.00000000
874.00000000	0.00000000
875.00000000	0.00002426
876.00000000	0.00000000
877.00000000	0.00000000
878.00000000	0.00000000
879.00000000	0.00000000
880.00000000	0.00014089
881.00000000	0.00000131
882.00000000	0.00000000
883.00000000	0.00000000
884.00000000	0.00000000
885.00000000	0.00008885
886.00000000	0.00000000
887.00000000	0.00000000
888.00000000	0.00000000
889.00000000	0.00000000
890.00000000	0.00000000
891.00000000	0.00000000
892.00000000	0.00000000
893.00000000	0.00000000
894.00000000	0.00000000
895.00000000	0.00000000
896.00000000	0.00000000
897.00000000	0.00000000
898.00000000	0.00000000
899.00000000	0.00000000
900.00000000	0.00000000
