#LICA Lamps Spectra Database
#Website 1: https://guaix.fis.ucm.es/lamps_spectra
#Website 2: http://carlostapia.es/lamparas/lamps.html
#Latest update: 2017/12/17
#Tester: Carlos Eugenio Tapia Ayuga
#Correct for Electrical Dark: Yes (JAZA2310)
#Correct for Detector Non-linearity: Yes (JAZA2310)
#Correct for Flux: Yes
#Start wavelength (nm): 300
#End wavelength (nm): 900
#Steps (nm):	1
#Locus: D65 sRGB Gamma 1 CIE1931
#XYZ coordinates: 0.7443	0.6797	0.2128
#xyY coordinates: 0.4547	0.4153	0.6797
#sRGB: 255	114	26
#CCT Lindbloom (K):	2810
#CCT McCamy (K):	2811
#CCT Hernández-Andrés (K):	2733
#Melatonin: 0.289
#Chlorophyll a: 0.161
#Chlorophyll b: 0.499
#Beta Carotene: 0.162
#Manufacturer: VEL Light
#Luminance manufacturer: 
#Other data: 2700K
#Begin Processed Spectral Data
W	S
300.00000000	0.00000000
301.00000000	0.00000000
302.00000000	0.00000000
303.00000000	0.00000000
304.00000000	0.00000000
305.00000000	0.00000000
306.00000000	0.00000000
307.00000000	0.00000000
308.00000000	0.00000318
309.00000000	0.00009014
310.00000000	0.00000000
311.00000000	0.00000000
312.00000000	0.00000000
313.00000000	0.00000000
314.00000000	0.00000000
315.00000000	0.00000000
316.00000000	0.00079443
317.00000000	0.00000000
318.00000000	0.00000000
319.00000000	0.00000000
320.00000000	0.00000000
321.00000000	0.00000000
322.00000000	0.00000000
323.00000000	0.00000000
324.00000000	0.00000000
325.00000000	0.00000000
326.00000000	0.00000000
327.00000000	0.00000530
328.00000000	0.00000000
329.00000000	0.00116806
330.00000000	0.00000000
331.00000000	0.00000000
332.00000000	0.00000000
333.00000000	0.00000000
334.00000000	0.00000000
335.00000000	0.00000000
336.00000000	0.00000000
337.00000000	0.00000000
338.00000000	0.00000000
339.00000000	0.00000000
340.00000000	0.00000000
341.00000000	0.00000000
342.00000000	0.00000000
343.00000000	0.00000000
344.00000000	0.00000000
345.00000000	0.00000000
346.00000000	0.00014471
347.00000000	0.00020999
348.00000000	0.00000000
349.00000000	0.00000000
350.00000000	0.00000000
351.00000000	0.00000000
352.00000000	0.00000000
353.00000000	0.00000000
354.00000000	0.00000000
355.00000000	0.00000000
356.00000000	0.00000000
357.00000000	0.00000000
358.00000000	0.00000000
359.00000000	0.00000000
360.00000000	0.00000000
361.00000000	0.00019416
362.00000000	0.00000000
363.00000000	0.00000000
364.00000000	0.00000000
365.00000000	0.00000000
366.00000000	0.00000000
367.00000000	0.00000000
368.00000000	0.00000000
369.00000000	0.00000000
370.00000000	0.00113450
371.00000000	0.00118027
372.00000000	0.00000000
373.00000000	0.00000000
374.00000000	0.00000000
375.00000000	0.00000708
376.00000000	0.00000000
377.00000000	0.00000000
378.00000000	0.00000000
379.00000000	0.00000000
380.00000000	0.00000002
381.00000000	0.00014331
382.00000000	0.00066953
383.00000000	0.00090797
384.00000000	0.00000000
385.00000000	0.00000000
386.00000000	0.00000000
387.00000000	0.00000000
388.00000000	0.00000539
389.00000000	0.00000000
390.00000000	0.00000000
391.00000000	0.00078446
392.00000000	0.00000000
393.00000000	0.00000000
394.00000000	0.00000000
395.00000000	0.00000000
396.00000000	0.00000000
397.00000000	0.00000000
398.00000000	0.00032763
399.00000000	0.00018353
400.00000000	0.00001363
401.00000000	0.00000000
402.00000000	0.00065868
403.00000000	0.00055102
404.00000000	0.00000299
405.00000000	0.00001630
406.00000000	0.00143615
407.00000000	0.00049995
408.00000000	0.00168926
409.00000000	0.00095499
410.00000000	0.00203400
411.00000000	0.00186139
412.00000000	0.00626125
413.00000000	0.00596921
414.00000000	0.00625776
415.00000000	0.00434680
416.00000000	0.00505583
417.00000000	0.00718548
418.00000000	0.00645590
419.00000000	0.00969380
420.00000000	0.01021281
421.00000000	0.01247101
422.00000000	0.01068631
423.00000000	0.01496287
424.00000000	0.01404420
425.00000000	0.01871866
426.00000000	0.02070640
427.00000000	0.02037724
428.00000000	0.02410629
429.00000000	0.02854548
430.00000000	0.02776266
431.00000000	0.03442604
432.00000000	0.03685944
433.00000000	0.04049383
434.00000000	0.04537476
435.00000000	0.05185040
436.00000000	0.05506078
437.00000000	0.06077176
438.00000000	0.06488916
439.00000000	0.07395766
440.00000000	0.08066231
441.00000000	0.08598788
442.00000000	0.09735539
443.00000000	0.10424606
444.00000000	0.11570654
445.00000000	0.12998468
446.00000000	0.14088488
447.00000000	0.15946319
448.00000000	0.17893718
449.00000000	0.20263317
450.00000000	0.21784019
451.00000000	0.24029552
452.00000000	0.26645215
453.00000000	0.28516672
454.00000000	0.31266656
455.00000000	0.33130908
456.00000000	0.34890192
457.00000000	0.36185540
458.00000000	0.37483477
459.00000000	0.37736971
460.00000000	0.37735809
461.00000000	0.37693624
462.00000000	0.36912996
463.00000000	0.35028626
464.00000000	0.35206042
465.00000000	0.34262966
466.00000000	0.32648288
467.00000000	0.32260828
468.00000000	0.31919968
469.00000000	0.30958599
470.00000000	0.30586326
471.00000000	0.30248901
472.00000000	0.30305500
473.00000000	0.29263825
474.00000000	0.29220060
475.00000000	0.28257085
476.00000000	0.27703407
477.00000000	0.27155103
478.00000000	0.26305875
479.00000000	0.25910870
480.00000000	0.25069199
481.00000000	0.24659353
482.00000000	0.24252089
483.00000000	0.24051038
484.00000000	0.23947072
485.00000000	0.24045870
486.00000000	0.24019436
487.00000000	0.23913461
488.00000000	0.24025507
489.00000000	0.24047582
490.00000000	0.24472920
491.00000000	0.24813931
492.00000000	0.24877345
493.00000000	0.25378689
494.00000000	0.25593652
495.00000000	0.26300019
496.00000000	0.26915226
497.00000000	0.27448666
498.00000000	0.27410562
499.00000000	0.28133883
500.00000000	0.28610392
501.00000000	0.29246921
502.00000000	0.29764075
503.00000000	0.30601683
504.00000000	0.31386411
505.00000000	0.31736162
506.00000000	0.32185015
507.00000000	0.33280523
508.00000000	0.33537650
509.00000000	0.34404933
510.00000000	0.34754632
511.00000000	0.35883553
512.00000000	0.36116237
513.00000000	0.36434815
514.00000000	0.37755295
515.00000000	0.38220567
516.00000000	0.38737550
517.00000000	0.38954968
518.00000000	0.39431398
519.00000000	0.39702651
520.00000000	0.40149150
521.00000000	0.40354137
522.00000000	0.40903494
523.00000000	0.41633163
524.00000000	0.42106889
525.00000000	0.42423019
526.00000000	0.43108848
527.00000000	0.43474796
528.00000000	0.44063389
529.00000000	0.44759945
530.00000000	0.44910473
531.00000000	0.45212968
532.00000000	0.45439622
533.00000000	0.45752969
534.00000000	0.46112937
535.00000000	0.46460439
536.00000000	0.47057839
537.00000000	0.47503525
538.00000000	0.47816440
539.00000000	0.48586271
540.00000000	0.48949979
541.00000000	0.49624225
542.00000000	0.50212000
543.00000000	0.50421657
544.00000000	0.51318206
545.00000000	0.52081240
546.00000000	0.52208812
547.00000000	0.52859647
548.00000000	0.53666279
549.00000000	0.53982995
550.00000000	0.55006899
551.00000000	0.55321842
552.00000000	0.56281410
553.00000000	0.57083148
554.00000000	0.58120617
555.00000000	0.58900050
556.00000000	0.59959317
557.00000000	0.61084881
558.00000000	0.62136359
559.00000000	0.62949297
560.00000000	0.64137258
561.00000000	0.64659625
562.00000000	0.65660097
563.00000000	0.66174651
564.00000000	0.66978540
565.00000000	0.68204731
566.00000000	0.68904701
567.00000000	0.70214004
568.00000000	0.71237794
569.00000000	0.72408935
570.00000000	0.73348816
571.00000000	0.74279893
572.00000000	0.74850446
573.00000000	0.76555302
574.00000000	0.77561944
575.00000000	0.78644180
576.00000000	0.79310123
577.00000000	0.80434037
578.00000000	0.81464670
579.00000000	0.82514757
580.00000000	0.83933178
581.00000000	0.84543410
582.00000000	0.85432956
583.00000000	0.86897581
584.00000000	0.88307097
585.00000000	0.89884029
586.00000000	0.90466571
587.00000000	0.91336650
588.00000000	0.91907209
589.00000000	0.92745714
590.00000000	0.93458870
591.00000000	0.94135357
592.00000000	0.94507347
593.00000000	0.95308634
594.00000000	0.95983478
595.00000000	0.96626245
596.00000000	0.97148315
597.00000000	0.97688025
598.00000000	0.98352823
599.00000000	0.98168885
600.00000000	0.98849408
601.00000000	0.99259839
602.00000000	0.99894495
603.00000000	0.99978104
604.00000000	1.00000000
605.00000000	0.99247878
606.00000000	0.99235016
607.00000000	0.98687217
608.00000000	0.98460625
609.00000000	0.97825892
610.00000000	0.97725766
611.00000000	0.97264208
612.00000000	0.96096096
613.00000000	0.96448831
614.00000000	0.96319290
615.00000000	0.96423880
616.00000000	0.96220764
617.00000000	0.95545194
618.00000000	0.95985366
619.00000000	0.95508138
620.00000000	0.94674962
621.00000000	0.93102053
622.00000000	0.91719009
623.00000000	0.91148508
624.00000000	0.90243419
625.00000000	0.89357352
626.00000000	0.87857004
627.00000000	0.87187541
628.00000000	0.86502640
629.00000000	0.84869386
630.00000000	0.83671060
631.00000000	0.81984647
632.00000000	0.80464124
633.00000000	0.79814823
634.00000000	0.79155741
635.00000000	0.77531584
636.00000000	0.76575269
637.00000000	0.75092203
638.00000000	0.73503612
639.00000000	0.72210987
640.00000000	0.70614731
641.00000000	0.69924096
642.00000000	0.68301330
643.00000000	0.66703438
644.00000000	0.65714172
645.00000000	0.64764982
646.00000000	0.63259017
647.00000000	0.62111406
648.00000000	0.61143740
649.00000000	0.59961100
650.00000000	0.58203568
651.00000000	0.57020597
652.00000000	0.55882831
653.00000000	0.54263053
654.00000000	0.52808924
655.00000000	0.51289116
656.00000000	0.50798765
657.00000000	0.49209768
658.00000000	0.47685473
659.00000000	0.47074186
660.00000000	0.45430457
661.00000000	0.44514913
662.00000000	0.44020755
663.00000000	0.42168304
664.00000000	0.41200399
665.00000000	0.40606433
666.00000000	0.39050951
667.00000000	0.38427385
668.00000000	0.37093842
669.00000000	0.36310920
670.00000000	0.35752664
671.00000000	0.34648113
672.00000000	0.33381702
673.00000000	0.33045143
674.00000000	0.31445534
675.00000000	0.30460156
676.00000000	0.29775516
677.00000000	0.29412400
678.00000000	0.28046553
679.00000000	0.27731726
680.00000000	0.26659985
681.00000000	0.25911628
682.00000000	0.25345022
683.00000000	0.24477082
684.00000000	0.24007885
685.00000000	0.22990997
686.00000000	0.22429585
687.00000000	0.21575024
688.00000000	0.21092748
689.00000000	0.20331839
690.00000000	0.20060881
691.00000000	0.18561271
692.00000000	0.19234149
693.00000000	0.17922769
694.00000000	0.17688812
695.00000000	0.17141403
696.00000000	0.16603503
697.00000000	0.16278270
698.00000000	0.15282403
699.00000000	0.15062545
700.00000000	0.14511862
701.00000000	0.14585381
702.00000000	0.13887955
703.00000000	0.13332365
704.00000000	0.13378105
705.00000000	0.12514838
706.00000000	0.12031165
707.00000000	0.12454229
708.00000000	0.11592651
709.00000000	0.10624926
710.00000000	0.10612058
711.00000000	0.10498256
712.00000000	0.10161001
713.00000000	0.09789134
714.00000000	0.09161015
715.00000000	0.09094203
716.00000000	0.08860640
717.00000000	0.08503332
718.00000000	0.08307408
719.00000000	0.08337693
720.00000000	0.07793993
721.00000000	0.08256961
722.00000000	0.07464439
723.00000000	0.07141549
724.00000000	0.07071100
725.00000000	0.06727567
726.00000000	0.06593729
727.00000000	0.06226794
728.00000000	0.06031073
729.00000000	0.06344141
730.00000000	0.05523110
731.00000000	0.05309542
732.00000000	0.05027897
733.00000000	0.05213441
734.00000000	0.05025273
735.00000000	0.05339279
736.00000000	0.04759788
737.00000000	0.04191535
738.00000000	0.04704581
739.00000000	0.04162049
740.00000000	0.04376838
741.00000000	0.04030645
742.00000000	0.04261307
743.00000000	0.03579233
744.00000000	0.03225404
745.00000000	0.03190838
746.00000000	0.03157496
747.00000000	0.03130614
748.00000000	0.02777557
749.00000000	0.02846125
750.00000000	0.02716011
751.00000000	0.02384566
752.00000000	0.02914024
753.00000000	0.02131577
754.00000000	0.02424156
755.00000000	0.01919359
756.00000000	0.02004939
757.00000000	0.02313309
758.00000000	0.01670388
759.00000000	0.01608856
760.00000000	0.01654410
761.00000000	0.01801485
762.00000000	0.01838742
763.00000000	0.01709782
764.00000000	0.01890114
765.00000000	0.01147035
766.00000000	0.01152484
767.00000000	0.01277587
768.00000000	0.01845520
769.00000000	0.01408296
770.00000000	0.01342159
771.00000000	0.01565088
772.00000000	0.01340097
773.00000000	0.01155321
774.00000000	0.01586425
775.00000000	0.00911392
776.00000000	0.00516535
777.00000000	0.01150791
778.00000000	0.00889818
779.00000000	0.01012568
780.00000000	0.00900526
781.00000000	0.00991440
782.00000000	0.01323215
783.00000000	0.00650917
784.00000000	0.00843231
785.00000000	0.00441577
786.00000000	0.00593977
787.00000000	0.00253253
788.00000000	0.00493487
789.00000000	0.00468910
790.00000000	0.01086854
791.00000000	0.00758166
792.00000000	0.00425883
793.00000000	0.00503264
794.00000000	0.00165048
795.00000000	0.00387398
796.00000000	0.00016343
797.00000000	0.00107664
798.00000000	0.00000000
799.00000000	0.00000000
800.00000000	0.00328603
801.00000000	0.00072829
802.00000000	0.00600434
803.00000000	0.00490725
804.00000000	0.00000000
805.00000000	0.00309951
806.00000000	0.00000000
807.00000000	0.00003534
808.00000000	0.00170436
809.00000000	0.00000000
810.00000000	0.00021015
811.00000000	0.00000000
812.00000000	0.00303830
813.00000000	0.00000000
814.00000000	0.00000000
815.00000000	0.00130570
816.00000000	0.00010792
817.00000000	0.00032953
818.00000000	0.00050255
819.00000000	0.00000000
820.00000000	0.00008907
821.00000000	0.00000000
822.00000000	0.00009110
823.00000000	0.00000000
824.00000000	0.00374884
825.00000000	0.00000000
826.00000000	0.00000000
827.00000000	0.00302641
828.00000000	0.00000000
829.00000000	0.00005209
830.00000000	0.00000000
831.00000000	0.00000000
832.00000000	0.00000000
833.00000000	0.00012162
834.00000000	0.00000000
835.00000000	0.00000000
836.00000000	0.00000000
837.00000000	0.00000866
838.00000000	0.00000000
839.00000000	0.00008873
840.00000000	0.00376125
841.00000000	0.00000000
842.00000000	0.00000000
843.00000000	0.00000000
844.00000000	0.00000000
845.00000000	0.00109293
846.00000000	0.00000000
847.00000000	0.00000000
848.00000000	0.00000000
849.00000000	0.00000000
850.00000000	0.00000000
851.00000000	0.00000000
852.00000000	0.00000000
853.00000000	0.00000000
854.00000000	0.00000000
855.00000000	0.00000000
856.00000000	0.00038594
857.00000000	0.00000000
858.00000000	0.00000000
859.00000000	0.00000000
860.00000000	0.00000000
861.00000000	0.00000000
862.00000000	0.00000000
863.00000000	0.00000000
864.00000000	0.00000000
865.00000000	0.00000000
866.00000000	0.00144346
867.00000000	0.00000000
868.00000000	0.00000000
869.00000000	0.00000000
870.00000000	0.00000000
871.00000000	0.00000000
872.00000000	0.00005009
873.00000000	0.00000000
874.00000000	0.00000000
875.00000000	0.00000000
876.00000000	0.00035082
877.00000000	0.00000000
878.00000000	0.00000000
879.00000000	0.00000000
880.00000000	0.00000000
881.00000000	0.00030899
882.00000000	0.00000000
883.00000000	0.00000000
884.00000000	0.00000000
885.00000000	0.00128097
886.00000000	0.00000000
887.00000000	0.00000000
888.00000000	0.00000000
889.00000000	0.00362829
890.00000000	0.00000000
891.00000000	0.00000000
892.00000000	0.00000000
893.00000000	0.00000000
894.00000000	0.00000000
895.00000000	0.00221500
896.00000000	0.00000000
897.00000000	0.00000000
898.00000000	0.00000000
899.00000000	0.00000000
900.00000000	0.00000000
