#LICA Lamps Spectra Database
#Website 1: https://guaix.fis.ucm.es/lamps_spectra
#Website 2: http://carlostapia.es/lamparas/lamps.html
#Latest update: 2018/04/18
#Tester: Carlos Eugenio Tapia Ayuga
#Correct for Electrical Dark: Yes (JAZA2310)
#Correct for Detector Non-linearity: Yes (JAZA2310)
#Correct for Flux: Yes
#Start wavelength (nm): 300
#End wavelength (nm): 900
#Steps (nm):	1
#Locus: D65 sRGB Gamma 1 CIE1931
#XYZ coordinates: 0.7749	0.7175	0.2745
#xyY coordinates: 0.4386	0.4061	0.7175
#sRGB: 255	122	37
#CCT Lindbloom (K):	2989
#CCT McCamy (K):	2993
#CCT Hernández-Andrés (K):	2940
#Melatonin: 0.330
#Chlorophyll a: 0.175
#Chlorophyll b: 0.577
#Beta Carotene: 0.175
#Manufacturer: Lexman
#Luminance manufacturer: 470lm
#Other data: 3000K. 5W
#Begin Processed Spectral Data
W	S
300.00000000	0.00310656
301.00000000	0.00000000
302.00000000	0.00000000
303.00000000	0.00000000
304.00000000	0.00000000
305.00000000	0.00000000
306.00000000	0.00525245
307.00000000	0.00000000
308.00000000	0.00057537
309.00000000	0.00283907
310.00000000	0.00000000
311.00000000	0.00261102
312.00000000	0.00013205
313.00000000	0.00569704
314.00000000	0.00995316
315.00000000	0.00000000
316.00000000	0.00108871
317.00000000	0.00010014
318.00000000	0.00000000
319.00000000	0.00153239
320.00000000	0.00000000
321.00000000	0.00000000
322.00000000	0.00000000
323.00000000	0.00165977
324.00000000	0.00562879
325.00000000	0.00000000
326.00000000	0.00036965
327.00000000	0.00302663
328.00000000	0.00045288
329.00000000	0.00000000
330.00000000	0.00532712
331.00000000	0.00048860
332.00000000	0.00148618
333.00000000	0.00056614
334.00000000	0.00000000
335.00000000	0.00025728
336.00000000	0.00206038
337.00000000	0.00000000
338.00000000	0.00159565
339.00000000	0.00395627
340.00000000	0.00000000
341.00000000	0.00000051
342.00000000	0.00043608
343.00000000	0.00121650
344.00000000	0.00052063
345.00000000	0.00342393
346.00000000	0.00000000
347.00000000	0.00142440
348.00000000	0.00000000
349.00000000	0.00017573
350.00000000	0.00000000
351.00000000	0.00000000
352.00000000	0.00104385
353.00000000	0.00000000
354.00000000	0.00000000
355.00000000	0.00111371
356.00000000	0.00000000
357.00000000	0.00282731
358.00000000	0.00000000
359.00000000	0.00034016
360.00000000	0.00333222
361.00000000	0.00140402
362.00000000	0.00300824
363.00000000	0.00208588
364.00000000	0.00377167
365.00000000	0.00000000
366.00000000	0.00109993
367.00000000	0.00002606
368.00000000	0.00019331
369.00000000	0.00048842
370.00000000	0.00105742
371.00000000	0.00000000
372.00000000	0.00047519
373.00000000	0.00155290
374.00000000	0.00000000
375.00000000	0.00000000
376.00000000	0.00000286
377.00000000	0.00023631
378.00000000	0.00000000
379.00000000	0.00000000
380.00000000	0.00012354
381.00000000	0.00027434
382.00000000	0.00102227
383.00000000	0.00000000
384.00000000	0.00066427
385.00000000	0.00000000
386.00000000	0.00065706
387.00000000	0.00027281
388.00000000	0.00201927
389.00000000	0.00025718
390.00000000	0.00066228
391.00000000	0.00191485
392.00000000	0.00183426
393.00000000	0.00145406
394.00000000	0.00069723
395.00000000	0.00054671
396.00000000	0.00007572
397.00000000	0.00010810
398.00000000	0.00076612
399.00000000	0.00150014
400.00000000	0.00000000
401.00000000	0.00008822
402.00000000	0.00024736
403.00000000	0.00061295
404.00000000	0.00132239
405.00000000	0.00150815
406.00000000	0.00056924
407.00000000	0.00060358
408.00000000	0.00225261
409.00000000	0.00067653
410.00000000	0.00165571
411.00000000	0.00000000
412.00000000	0.00073588
413.00000000	0.00130460
414.00000000	0.00183842
415.00000000	0.00092195
416.00000000	0.00324999
417.00000000	0.00065262
418.00000000	0.00501249
419.00000000	0.00479526
420.00000000	0.00680045
421.00000000	0.00889932
422.00000000	0.01098870
423.00000000	0.01174305
424.00000000	0.01546495
425.00000000	0.01985870
426.00000000	0.02480915
427.00000000	0.02923774
428.00000000	0.03582930
429.00000000	0.04352148
430.00000000	0.04717818
431.00000000	0.05677843
432.00000000	0.06177118
433.00000000	0.07285504
434.00000000	0.07991853
435.00000000	0.09258680
436.00000000	0.10465927
437.00000000	0.11148730
438.00000000	0.12693243
439.00000000	0.14169721
440.00000000	0.15987854
441.00000000	0.17541842
442.00000000	0.19922210
443.00000000	0.22206032
444.00000000	0.24544466
445.00000000	0.28424354
446.00000000	0.31234300
447.00000000	0.34737574
448.00000000	0.38516023
449.00000000	0.43772173
450.00000000	0.46061952
451.00000000	0.48932679
452.00000000	0.51286856
453.00000000	0.54281150
454.00000000	0.53388029
455.00000000	0.52207570
456.00000000	0.51136785
457.00000000	0.48334443
458.00000000	0.46802263
459.00000000	0.44342928
460.00000000	0.41804978
461.00000000	0.39910014
462.00000000	0.37379693
463.00000000	0.34731128
464.00000000	0.33993186
465.00000000	0.32440728
466.00000000	0.31593585
467.00000000	0.30642644
468.00000000	0.29890679
469.00000000	0.29126694
470.00000000	0.28339177
471.00000000	0.27309388
472.00000000	0.26054610
473.00000000	0.25377262
474.00000000	0.24714075
475.00000000	0.23259770
476.00000000	0.22705344
477.00000000	0.21850451
478.00000000	0.21005926
479.00000000	0.20838345
480.00000000	0.20697659
481.00000000	0.20880115
482.00000000	0.20716206
483.00000000	0.21045997
484.00000000	0.21316675
485.00000000	0.21461806
486.00000000	0.22170097
487.00000000	0.22843468
488.00000000	0.23133401
489.00000000	0.23776935
490.00000000	0.24196935
491.00000000	0.24519413
492.00000000	0.25049528
493.00000000	0.25828767
494.00000000	0.26848814
495.00000000	0.27288347
496.00000000	0.27917849
497.00000000	0.29180938
498.00000000	0.29965171
499.00000000	0.31007877
500.00000000	0.31697711
501.00000000	0.32890026
502.00000000	0.33849885
503.00000000	0.34834619
504.00000000	0.35435904
505.00000000	0.36431711
506.00000000	0.37040688
507.00000000	0.38021157
508.00000000	0.38857832
509.00000000	0.39954097
510.00000000	0.40591212
511.00000000	0.41388053
512.00000000	0.42907067
513.00000000	0.43196197
514.00000000	0.43565952
515.00000000	0.44374927
516.00000000	0.44826388
517.00000000	0.45065215
518.00000000	0.45985715
519.00000000	0.46041265
520.00000000	0.46921353
521.00000000	0.46841554
522.00000000	0.47343047
523.00000000	0.48023260
524.00000000	0.49196682
525.00000000	0.49408934
526.00000000	0.49913758
527.00000000	0.50421238
528.00000000	0.50839537
529.00000000	0.51319453
530.00000000	0.51291848
531.00000000	0.51853036
532.00000000	0.52214228
533.00000000	0.52270320
534.00000000	0.52888748
535.00000000	0.53052340
536.00000000	0.53287289
537.00000000	0.54105083
538.00000000	0.54031534
539.00000000	0.54496220
540.00000000	0.55634223
541.00000000	0.56000817
542.00000000	0.56500844
543.00000000	0.57524294
544.00000000	0.56970809
545.00000000	0.57918372
546.00000000	0.58383683
547.00000000	0.59141826
548.00000000	0.59807892
549.00000000	0.60079573
550.00000000	0.60850222
551.00000000	0.61272855
552.00000000	0.62105201
553.00000000	0.62502898
554.00000000	0.62987405
555.00000000	0.64037086
556.00000000	0.65326100
557.00000000	0.66286655
558.00000000	0.66870715
559.00000000	0.67780587
560.00000000	0.68099870
561.00000000	0.69416877
562.00000000	0.69948045
563.00000000	0.70015891
564.00000000	0.71065664
565.00000000	0.72575738
566.00000000	0.73069875
567.00000000	0.73587833
568.00000000	0.74461050
569.00000000	0.75918069
570.00000000	0.75853951
571.00000000	0.76665775
572.00000000	0.78199164
573.00000000	0.79134039
574.00000000	0.79799231
575.00000000	0.80407265
576.00000000	0.81146242
577.00000000	0.82027168
578.00000000	0.82759509
579.00000000	0.83428519
580.00000000	0.84771493
581.00000000	0.86043487
582.00000000	0.86393741
583.00000000	0.87325858
584.00000000	0.88834765
585.00000000	0.90084369
586.00000000	0.91215105
587.00000000	0.91003870
588.00000000	0.92546606
589.00000000	0.92570509
590.00000000	0.93839867
591.00000000	0.94459723
592.00000000	0.93943249
593.00000000	0.95134464
594.00000000	0.95283849
595.00000000	0.96751811
596.00000000	0.96627379
597.00000000	0.96430424
598.00000000	0.98087224
599.00000000	0.98028718
600.00000000	0.99021667
601.00000000	0.98859486
602.00000000	0.99674235
603.00000000	0.99845680
604.00000000	0.99630548
605.00000000	1.00000000
606.00000000	0.99309441
607.00000000	0.98665601
608.00000000	0.98489216
609.00000000	0.98163363
610.00000000	0.97536479
611.00000000	0.97553797
612.00000000	0.97472020
613.00000000	0.97357453
614.00000000	0.97183923
615.00000000	0.96926899
616.00000000	0.96962574
617.00000000	0.96851600
618.00000000	0.97502197
619.00000000	0.96252874
620.00000000	0.95889846
621.00000000	0.95098742
622.00000000	0.94011309
623.00000000	0.93383576
624.00000000	0.91847442
625.00000000	0.90872907
626.00000000	0.90759913
627.00000000	0.89258427
628.00000000	0.88316341
629.00000000	0.87701302
630.00000000	0.86726133
631.00000000	0.85696258
632.00000000	0.84194233
633.00000000	0.83015904
634.00000000	0.82719986
635.00000000	0.80790686
636.00000000	0.79862185
637.00000000	0.78032944
638.00000000	0.76445642
639.00000000	0.75931851
640.00000000	0.74038771
641.00000000	0.73438712
642.00000000	0.72452436
643.00000000	0.70531799
644.00000000	0.69812004
645.00000000	0.67920566
646.00000000	0.66616828
647.00000000	0.66351063
648.00000000	0.65220607
649.00000000	0.63461486
650.00000000	0.61674870
651.00000000	0.60958958
652.00000000	0.59808657
653.00000000	0.57928521
654.00000000	0.56523351
655.00000000	0.55869612
656.00000000	0.55081122
657.00000000	0.52267649
658.00000000	0.51758062
659.00000000	0.51365873
660.00000000	0.49834339
661.00000000	0.49098674
662.00000000	0.47470856
663.00000000	0.45717898
664.00000000	0.44279611
665.00000000	0.43673356
666.00000000	0.42468670
667.00000000	0.41622634
668.00000000	0.40317171
669.00000000	0.39367353
670.00000000	0.38680631
671.00000000	0.38183590
672.00000000	0.36387075
673.00000000	0.35464383
674.00000000	0.34757173
675.00000000	0.33668755
676.00000000	0.33222394
677.00000000	0.32062001
678.00000000	0.30914780
679.00000000	0.30478719
680.00000000	0.30113173
681.00000000	0.28748591
682.00000000	0.27817323
683.00000000	0.27567521
684.00000000	0.26602517
685.00000000	0.25370106
686.00000000	0.25131553
687.00000000	0.24423399
688.00000000	0.23787933
689.00000000	0.22414677
690.00000000	0.21962105
691.00000000	0.21589888
692.00000000	0.20991398
693.00000000	0.19969552
694.00000000	0.19836849
695.00000000	0.19182528
696.00000000	0.18488961
697.00000000	0.17940347
698.00000000	0.17110468
699.00000000	0.16958970
700.00000000	0.16490644
701.00000000	0.16570882
702.00000000	0.15693884
703.00000000	0.14934354
704.00000000	0.15444174
705.00000000	0.14567240
706.00000000	0.13909952
707.00000000	0.13129223
708.00000000	0.13079593
709.00000000	0.12907204
710.00000000	0.12124604
711.00000000	0.11986240
712.00000000	0.11511879
713.00000000	0.11108122
714.00000000	0.10387281
715.00000000	0.10310980
716.00000000	0.09788661
717.00000000	0.09990812
718.00000000	0.09637014
719.00000000	0.09500483
720.00000000	0.09370720
721.00000000	0.08969662
722.00000000	0.08512588
723.00000000	0.08137728
724.00000000	0.08081158
725.00000000	0.07885208
726.00000000	0.07373067
727.00000000	0.07218437
728.00000000	0.06948369
729.00000000	0.06748373
730.00000000	0.06620728
731.00000000	0.06517048
732.00000000	0.06638973
733.00000000	0.06237670
734.00000000	0.06165595
735.00000000	0.05527319
736.00000000	0.05943730
737.00000000	0.05012850
738.00000000	0.05257145
739.00000000	0.04769662
740.00000000	0.04863352
741.00000000	0.04731981
742.00000000	0.04673095
743.00000000	0.04484654
744.00000000	0.04388076
745.00000000	0.04228795
746.00000000	0.03959922
747.00000000	0.03378169
748.00000000	0.03692537
749.00000000	0.03647528
750.00000000	0.03295718
751.00000000	0.03426727
752.00000000	0.03296156
753.00000000	0.03437618
754.00000000	0.03212578
755.00000000	0.02843413
756.00000000	0.02739806
757.00000000	0.02645996
758.00000000	0.02868409
759.00000000	0.02635600
760.00000000	0.02850163
761.00000000	0.02947348
762.00000000	0.02898256
763.00000000	0.02317106
764.00000000	0.02080869
765.00000000	0.02245392
766.00000000	0.01966445
767.00000000	0.01994405
768.00000000	0.01378336
769.00000000	0.01769574
770.00000000	0.01696300
771.00000000	0.02025872
772.00000000	0.01650846
773.00000000	0.01438359
774.00000000	0.02075690
775.00000000	0.01448952
776.00000000	0.01518915
777.00000000	0.01080542
778.00000000	0.01299036
779.00000000	0.01049206
780.00000000	0.01664229
781.00000000	0.00771698
782.00000000	0.00871527
783.00000000	0.01018265
784.00000000	0.01432539
785.00000000	0.01189550
786.00000000	0.01755242
787.00000000	0.01058298
788.00000000	0.00279257
789.00000000	0.00972600
790.00000000	0.00912205
791.00000000	0.01259868
792.00000000	0.01355617
793.00000000	0.01431852
794.00000000	0.00624965
795.00000000	0.01091305
796.00000000	0.00487583
797.00000000	0.01378123
798.00000000	0.00234487
799.00000000	0.00041649
800.00000000	0.00622170
801.00000000	0.00733719
802.00000000	0.00979085
803.00000000	0.00555721
804.00000000	0.00433680
805.00000000	0.00062452
806.00000000	0.00743872
807.00000000	0.00976779
808.00000000	0.01038658
809.00000000	0.01176429
810.00000000	0.00958350
811.00000000	0.00703888
812.00000000	0.00234063
813.00000000	0.00708171
814.00000000	0.00000000
815.00000000	0.00244649
816.00000000	0.00556217
817.00000000	0.00523574
818.00000000	0.00569456
819.00000000	0.00186305
820.00000000	0.00047637
821.00000000	0.00791139
822.00000000	0.00587692
823.00000000	0.00253450
824.00000000	0.00624068
825.00000000	0.00521500
826.00000000	0.00001911
827.00000000	0.00650316
828.00000000	0.00700615
829.00000000	0.00035750
830.00000000	0.00043049
831.00000000	0.00000552
832.00000000	0.00590211
833.00000000	0.00127577
834.00000000	0.00409057
835.00000000	0.00249756
836.00000000	0.00310215
837.00000000	0.00001143
838.00000000	0.00000000
839.00000000	0.00000000
840.00000000	0.00652531
841.00000000	0.00556218
842.00000000	0.00000000
843.00000000	0.00000000
844.00000000	0.00000000
845.00000000	0.00024481
846.00000000	0.00201612
847.00000000	0.00062975
848.00000000	0.00249175
849.00000000	0.00232931
850.00000000	0.00000000
851.00000000	0.00000000
852.00000000	0.00000000
853.00000000	0.00000000
854.00000000	0.00135658
855.00000000	0.00096273
856.00000000	0.00069236
857.00000000	0.00000000
858.00000000	0.00000000
859.00000000	0.00173116
860.00000000	0.00499896
861.00000000	0.00022124
862.00000000	0.00000000
863.00000000	0.00000000
864.00000000	0.00000000
865.00000000	0.00008896
866.00000000	0.00026590
867.00000000	0.00595965
868.00000000	0.00070194
869.00000000	0.00000000
870.00000000	0.00057157
871.00000000	0.00262904
872.00000000	0.00001400
873.00000000	0.00125484
874.00000000	0.00002753
875.00000000	0.00082421
876.00000000	0.00350594
877.00000000	0.00073005
878.00000000	0.00527969
879.00000000	0.00008072
880.00000000	0.00000000
881.00000000	0.00000000
882.00000000	0.00000000
883.00000000	0.00697038
884.00000000	0.00000000
885.00000000	0.00005150
886.00000000	0.00000000
887.00000000	0.01759639
888.00000000	0.00268475
889.00000000	0.00000000
890.00000000	0.00000000
891.00000000	0.00075011
892.00000000	0.00000414
893.00000000	0.00635921
894.00000000	0.01596595
895.00000000	0.00000000
896.00000000	0.00000000
897.00000000	0.00000000
898.00000000	0.01034234
899.00000000	0.00000000
900.00000000	0.00000000
