#LICA Lamps Spectra Database
#Website 1: https://guaix.fis.ucm.es/lamps_spectra
#Website 2: http://carlostapia.es/lamparas/lamps.html
#Latest update: 2017/12/15
#Tester: Carlos Eugenio Tapia Ayuga
#Correct for Electrical Dark: Yes (JAZA2310)
#Correct for Detector Non-linearity: Yes (JAZA2310)
#Correct for Flux: Yes
#Start wavelength (nm): 300
#End wavelength (nm): 900
#Steps (nm):	1
#Locus: D65 sRGB Gamma 1 CIE1931
#XYZ coordinates: 0.3868	0.3945	0.4660
#xyY coordinates: 0.3101	0.3136	0.3945
#sRGB: 106	98	111
#CCT Lindbloom (K):	6770
#CCT McCamy (K):	6766
#CCT Hernández-Andrés (K):	6770
#Melatonin: 0.784
#Chlorophyll a: 0.092
#Chlorophyll b: 1.195
#Beta Carotene: 0.092
#Manufacturer: Unknown
#Luminance manufacturer: Unknown
#Other data: Madrid streetlamp at Faro de Moncloa
#Begin Processed Spectral Data
W	S
300.00000000	0.00000000
301.00000000	0.00000000
302.00000000	0.00000000
303.00000000	0.00280017
304.00000000	0.00000000
305.00000000	0.00000000
306.00000000	0.00000000
307.00000000	0.00043092
308.00000000	0.00023722
309.00000000	0.00000000
310.00000000	0.00485425
311.00000000	0.00000000
312.00000000	0.00000000
313.00000000	0.00000000
314.00000000	0.00401004
315.00000000	0.00000000
316.00000000	0.00015103
317.00000000	0.00000000
318.00000000	0.00000000
319.00000000	0.00149959
320.00000000	0.00248214
321.00000000	0.00123801
322.00000000	0.00338877
323.00000000	0.00156091
324.00000000	0.00000000
325.00000000	0.00000000
326.00000000	0.00059867
327.00000000	0.00312316
328.00000000	0.00000000
329.00000000	0.00021403
330.00000000	0.00075828
331.00000000	0.00000000
332.00000000	0.00000000
333.00000000	0.00000000
334.00000000	0.00000000
335.00000000	0.00000000
336.00000000	0.00277119
337.00000000	0.00192555
338.00000000	0.00000000
339.00000000	0.00000000
340.00000000	0.00000000
341.00000000	0.00000000
342.00000000	0.00145103
343.00000000	0.00000000
344.00000000	0.00104086
345.00000000	0.00010777
346.00000000	0.00090410
347.00000000	0.00000000
348.00000000	0.00000000
349.00000000	0.00000000
350.00000000	0.00114099
351.00000000	0.00050434
352.00000000	0.00000000
353.00000000	0.00300858
354.00000000	0.00000000
355.00000000	0.00204198
356.00000000	0.00126035
357.00000000	0.00000000
358.00000000	0.00000000
359.00000000	0.00000000
360.00000000	0.00102414
361.00000000	0.00261571
362.00000000	0.00000000
363.00000000	0.00121289
364.00000000	0.00250004
365.00000000	0.00250541
366.00000000	0.00116283
367.00000000	0.00000000
368.00000000	0.00155309
369.00000000	0.00012693
370.00000000	0.00144809
371.00000000	0.00068872
372.00000000	0.00000000
373.00000000	0.00177234
374.00000000	0.00025242
375.00000000	0.00006258
376.00000000	0.00000000
377.00000000	0.00134301
378.00000000	0.00055231
379.00000000	0.00125287
380.00000000	0.00137115
381.00000000	0.00000000
382.00000000	0.00064160
383.00000000	0.00075718
384.00000000	0.00000000
385.00000000	0.00068427
386.00000000	0.00083211
387.00000000	0.00184903
388.00000000	0.00108470
389.00000000	0.00000000
390.00000000	0.00203996
391.00000000	0.00136107
392.00000000	0.00254170
393.00000000	0.00085857
394.00000000	0.00161761
395.00000000	0.00114485
396.00000000	0.00369403
397.00000000	0.00171076
398.00000000	0.00241007
399.00000000	0.00041236
400.00000000	0.00189330
401.00000000	0.00374342
402.00000000	0.00443937
403.00000000	0.00532910
404.00000000	0.00653628
405.00000000	0.00622523
406.00000000	0.00772305
407.00000000	0.00779873
408.00000000	0.00951134
409.00000000	0.01008406
410.00000000	0.01241358
411.00000000	0.01283333
412.00000000	0.01735762
413.00000000	0.02102393
414.00000000	0.02345853
415.00000000	0.02974734
416.00000000	0.03408289
417.00000000	0.04219074
418.00000000	0.04652670
419.00000000	0.05179743
420.00000000	0.05975366
421.00000000	0.06970106
422.00000000	0.08142784
423.00000000	0.09139657
424.00000000	0.10659016
425.00000000	0.11687431
426.00000000	0.13182472
427.00000000	0.14906189
428.00000000	0.16776546
429.00000000	0.18678319
430.00000000	0.21122192
431.00000000	0.23639877
432.00000000	0.25586482
433.00000000	0.28548415
434.00000000	0.31188010
435.00000000	0.34847294
436.00000000	0.37725259
437.00000000	0.41342819
438.00000000	0.45922862
439.00000000	0.50918559
440.00000000	0.55228530
441.00000000	0.60393665
442.00000000	0.65795263
443.00000000	0.72237196
444.00000000	0.77495967
445.00000000	0.82981423
446.00000000	0.87742370
447.00000000	0.92362658
448.00000000	0.96557826
449.00000000	0.99839315
450.00000000	0.99916024
451.00000000	1.00000000
452.00000000	0.98502901
453.00000000	0.94787270
454.00000000	0.91359241
455.00000000	0.86451074
456.00000000	0.80165517
457.00000000	0.74528792
458.00000000	0.68841852
459.00000000	0.63117119
460.00000000	0.58446708
461.00000000	0.53151531
462.00000000	0.49208081
463.00000000	0.44525170
464.00000000	0.41980546
465.00000000	0.38599323
466.00000000	0.35106991
467.00000000	0.33175414
468.00000000	0.30596081
469.00000000	0.28271363
470.00000000	0.25855999
471.00000000	0.24074818
472.00000000	0.22108977
473.00000000	0.20557622
474.00000000	0.18609690
475.00000000	0.17422059
476.00000000	0.16274598
477.00000000	0.15055752
478.00000000	0.13836277
479.00000000	0.12793438
480.00000000	0.12389587
481.00000000	0.11608916
482.00000000	0.11167289
483.00000000	0.10688240
484.00000000	0.10252233
485.00000000	0.10167384
486.00000000	0.09661303
487.00000000	0.09423799
488.00000000	0.09238031
489.00000000	0.09210151
490.00000000	0.09243222
491.00000000	0.09363133
492.00000000	0.09507397
493.00000000	0.09685798
494.00000000	0.09949956
495.00000000	0.10436892
496.00000000	0.10788630
497.00000000	0.11496674
498.00000000	0.12162978
499.00000000	0.12688488
500.00000000	0.13408250
501.00000000	0.14304044
502.00000000	0.14949600
503.00000000	0.16200274
504.00000000	0.16968647
505.00000000	0.18082340
506.00000000	0.18813073
507.00000000	0.20212176
508.00000000	0.21392894
509.00000000	0.22693380
510.00000000	0.23680139
511.00000000	0.25217424
512.00000000	0.26400082
513.00000000	0.27206029
514.00000000	0.28629627
515.00000000	0.29775509
516.00000000	0.30906792
517.00000000	0.31822688
518.00000000	0.32610357
519.00000000	0.33943309
520.00000000	0.34557440
521.00000000	0.35445129
522.00000000	0.36467597
523.00000000	0.37266278
524.00000000	0.38323220
525.00000000	0.38793130
526.00000000	0.39442003
527.00000000	0.40579032
528.00000000	0.41064986
529.00000000	0.41552343
530.00000000	0.41994734
531.00000000	0.42377409
532.00000000	0.42692101
533.00000000	0.43207876
534.00000000	0.43092853
535.00000000	0.43598228
536.00000000	0.43486028
537.00000000	0.44101738
538.00000000	0.44165747
539.00000000	0.44785640
540.00000000	0.44853026
541.00000000	0.45298231
542.00000000	0.44990216
543.00000000	0.45465368
544.00000000	0.45368347
545.00000000	0.45510779
546.00000000	0.45109699
547.00000000	0.45473886
548.00000000	0.45664022
549.00000000	0.45672514
550.00000000	0.45398847
551.00000000	0.45507620
552.00000000	0.45783647
553.00000000	0.45794517
554.00000000	0.45595401
555.00000000	0.45874142
556.00000000	0.46161291
557.00000000	0.45851739
558.00000000	0.45944938
559.00000000	0.45680813
560.00000000	0.45871798
561.00000000	0.45889127
562.00000000	0.45700352
563.00000000	0.45922988
564.00000000	0.45588874
565.00000000	0.45585506
566.00000000	0.45990164
567.00000000	0.45518003
568.00000000	0.45391825
569.00000000	0.45327732
570.00000000	0.44461422
571.00000000	0.44220398
572.00000000	0.44062829
573.00000000	0.44231360
574.00000000	0.43655080
575.00000000	0.43602873
576.00000000	0.43262493
577.00000000	0.43137903
578.00000000	0.42889915
579.00000000	0.42070427
580.00000000	0.41695321
581.00000000	0.41671809
582.00000000	0.41309580
583.00000000	0.41048085
584.00000000	0.40976936
585.00000000	0.41398075
586.00000000	0.40717474
587.00000000	0.40431694
588.00000000	0.40029699
589.00000000	0.39494328
590.00000000	0.39609275
591.00000000	0.38944583
592.00000000	0.38451632
593.00000000	0.38046949
594.00000000	0.37662116
595.00000000	0.36992485
596.00000000	0.36976063
597.00000000	0.36499307
598.00000000	0.36048046
599.00000000	0.35822427
600.00000000	0.35211530
601.00000000	0.34951976
602.00000000	0.34903121
603.00000000	0.34299272
604.00000000	0.33702462
605.00000000	0.33125047
606.00000000	0.32692115
607.00000000	0.31938962
608.00000000	0.31445700
609.00000000	0.30728996
610.00000000	0.30478765
611.00000000	0.30109010
612.00000000	0.29507756
613.00000000	0.29376286
614.00000000	0.29102073
615.00000000	0.28672652
616.00000000	0.28202768
617.00000000	0.28358069
618.00000000	0.27913905
619.00000000	0.27374165
620.00000000	0.26740092
621.00000000	0.26387146
622.00000000	0.25674145
623.00000000	0.25180841
624.00000000	0.25297645
625.00000000	0.24667234
626.00000000	0.24283199
627.00000000	0.23702920
628.00000000	0.23296717
629.00000000	0.22922820
630.00000000	0.22246461
631.00000000	0.21965344
632.00000000	0.21246195
633.00000000	0.20888535
634.00000000	0.20560033
635.00000000	0.19936704
636.00000000	0.19424709
637.00000000	0.19506535
638.00000000	0.18937840
639.00000000	0.18560407
640.00000000	0.18096049
641.00000000	0.17653348
642.00000000	0.17339394
643.00000000	0.16969126
644.00000000	0.16706489
645.00000000	0.16455813
646.00000000	0.16086436
647.00000000	0.15765090
648.00000000	0.15354006
649.00000000	0.14915219
650.00000000	0.14849614
651.00000000	0.14373463
652.00000000	0.13959548
653.00000000	0.13927603
654.00000000	0.13262231
655.00000000	0.12974830
656.00000000	0.12729379
657.00000000	0.12307619
658.00000000	0.12434931
659.00000000	0.11922592
660.00000000	0.11557020
661.00000000	0.11337374
662.00000000	0.11094065
663.00000000	0.11133395
664.00000000	0.10668811
665.00000000	0.10354529
666.00000000	0.09959977
667.00000000	0.09877673
668.00000000	0.09441540
669.00000000	0.09418893
670.00000000	0.09238459
671.00000000	0.09077572
672.00000000	0.08753698
673.00000000	0.08545922
674.00000000	0.08305754
675.00000000	0.08240276
676.00000000	0.08079204
677.00000000	0.07852292
678.00000000	0.07593401
679.00000000	0.07341860
680.00000000	0.07293274
681.00000000	0.06840047
682.00000000	0.06674565
683.00000000	0.06656967
684.00000000	0.06478381
685.00000000	0.06536325
686.00000000	0.06299929
687.00000000	0.05966513
688.00000000	0.05898724
689.00000000	0.05583048
690.00000000	0.05580352
691.00000000	0.05376431
692.00000000	0.05409611
693.00000000	0.05318386
694.00000000	0.04972260
695.00000000	0.04980980
696.00000000	0.04781410
697.00000000	0.04732992
698.00000000	0.04469195
699.00000000	0.04330879
700.00000000	0.04348898
701.00000000	0.04151017
702.00000000	0.04313315
703.00000000	0.04010055
704.00000000	0.03895662
705.00000000	0.03902676
706.00000000	0.03869286
707.00000000	0.03389817
708.00000000	0.03467526
709.00000000	0.03553619
710.00000000	0.03662198
711.00000000	0.03345195
712.00000000	0.03046051
713.00000000	0.03063624
714.00000000	0.02833756
715.00000000	0.02847885
716.00000000	0.02908071
717.00000000	0.02874647
718.00000000	0.02839627
719.00000000	0.02600233
720.00000000	0.02522868
721.00000000	0.02333555
722.00000000	0.02594882
723.00000000	0.02361645
724.00000000	0.02359957
725.00000000	0.02300450
726.00000000	0.02045650
727.00000000	0.02460060
728.00000000	0.02076890
729.00000000	0.02119974
730.00000000	0.01956332
731.00000000	0.01761080
732.00000000	0.01809834
733.00000000	0.01813312
734.00000000	0.01621403
735.00000000	0.01652568
736.00000000	0.01557529
737.00000000	0.01712024
738.00000000	0.01459920
739.00000000	0.01347602
740.00000000	0.01552187
741.00000000	0.01328610
742.00000000	0.01420658
743.00000000	0.01416903
744.00000000	0.01450134
745.00000000	0.01219803
746.00000000	0.01333885
747.00000000	0.01059630
748.00000000	0.01203104
749.00000000	0.01128838
750.00000000	0.01175451
751.00000000	0.00916257
752.00000000	0.00957351
753.00000000	0.01143043
754.00000000	0.00989078
755.00000000	0.00818581
756.00000000	0.01056043
757.00000000	0.01074028
758.00000000	0.00986331
759.00000000	0.00747096
760.00000000	0.00778050
761.00000000	0.00571610
762.00000000	0.00613325
763.00000000	0.00588931
764.00000000	0.00724382
765.00000000	0.01116902
766.00000000	0.01068383
767.00000000	0.00515707
768.00000000	0.00609889
769.00000000	0.00474925
770.00000000	0.00659508
771.00000000	0.00711093
772.00000000	0.00837859
773.00000000	0.00699417
774.00000000	0.00909529
775.00000000	0.00792935
776.00000000	0.00975730
777.00000000	0.00308863
778.00000000	0.00308410
779.00000000	0.00452748
780.00000000	0.00218965
781.00000000	0.00405170
782.00000000	0.00339011
783.00000000	0.00647555
784.00000000	0.00311660
785.00000000	0.00117475
786.00000000	0.00733858
787.00000000	0.00416804
788.00000000	0.00508097
789.00000000	0.00364195
790.00000000	0.00799664
791.00000000	0.00252641
792.00000000	0.00212010
793.00000000	0.00091796
794.00000000	0.00174554
795.00000000	0.00133175
796.00000000	0.00177267
797.00000000	0.00214866
798.00000000	0.00443021
799.00000000	0.00091343
800.00000000	0.00543713
801.00000000	0.00485736
802.00000000	0.00402877
803.00000000	0.00143230
804.00000000	0.00167196
805.00000000	0.00178544
806.00000000	0.00000000
807.00000000	0.00270995
808.00000000	0.00000000
809.00000000	0.00252129
810.00000000	0.00000000
811.00000000	0.00000000
812.00000000	0.00131831
813.00000000	0.00072644
814.00000000	0.00000000
815.00000000	0.00000000
816.00000000	0.00036154
817.00000000	0.00000000
818.00000000	0.00356088
819.00000000	0.00000000
820.00000000	0.00000000
821.00000000	0.00000000
822.00000000	0.00000000
823.00000000	0.00000000
824.00000000	0.00000000
825.00000000	0.00112939
826.00000000	0.00186045
827.00000000	0.00000000
828.00000000	0.00000000
829.00000000	0.00000000
830.00000000	0.00000000
831.00000000	0.00000000
832.00000000	0.00253548
833.00000000	0.00000000
834.00000000	0.00000000
835.00000000	0.00109252
836.00000000	0.00000000
837.00000000	0.00000000
838.00000000	0.00000000
839.00000000	0.00047645
840.00000000	0.00000000
841.00000000	0.00000000
842.00000000	0.00000000
843.00000000	0.00000000
844.00000000	0.00174722
845.00000000	0.00000000
846.00000000	0.00471724
847.00000000	0.00203509
848.00000000	0.00000000
849.00000000	0.00000000
850.00000000	0.00593316
851.00000000	0.00000000
852.00000000	0.00000000
853.00000000	0.00000000
854.00000000	0.00000000
855.00000000	0.00000000
856.00000000	0.00000000
857.00000000	0.00000000
858.00000000	0.00126850
859.00000000	0.00000000
860.00000000	0.00219604
861.00000000	0.00000000
862.00000000	0.00000000
863.00000000	0.00000000
864.00000000	0.00000000
865.00000000	0.00000000
866.00000000	0.00067797
867.00000000	0.00000000
868.00000000	0.00000000
869.00000000	0.00000000
870.00000000	0.00000000
871.00000000	0.00000000
872.00000000	0.00000000
873.00000000	0.00000000
874.00000000	0.00804024
875.00000000	0.00000000
876.00000000	0.00000000
877.00000000	0.00000000
878.00000000	0.00000000
879.00000000	0.00000000
880.00000000	0.00000000
881.00000000	0.00000000
882.00000000	0.00000000
883.00000000	0.00412403
884.00000000	0.00000000
885.00000000	0.00000000
886.00000000	0.00000000
887.00000000	0.00000000
888.00000000	0.00000000
889.00000000	0.00000000
890.00000000	0.00145700
891.00000000	0.00000000
892.00000000	0.00527173
893.00000000	0.00000000
894.00000000	0.00000000
895.00000000	0.00000000
896.00000000	0.00000000
897.00000000	0.00000000
898.00000000	0.00000000
899.00000000	0.00000000
900.00000000	0.00000000
