#LICA Lamps Spectra Database
#Website 1: https://guaix.fis.ucm.es/lamps_spectra
#Website 2: http://carlostapia.es/lamparas/lamps.html
#Latest update: 2017/12/15
#Tester: Carlos Eugenio Tapia Ayuga
#Correct for Electrical Dark: Yes (JAZA2310)
#Correct for Detector Non-linearity: Yes (JAZA2310)
#Correct for Flux: Yes
#Start wavelength (nm): 300
#End wavelength (nm): 900
#Steps (nm):	1
#Locus: D65 sRGB Gamma 1 CIE1931
#XYZ coordinates: 0.2287	0.2375	0.1281
#xyY coordinates: 0.3848	0.3997	0.2375
#sRGB: 80	58	25
#CCT Lindbloom (K):	4044
#CCT McCamy (K):	4045
#CCT Hernández-Andrés (K):	4024
#Melatonin: 0.527
#Chlorophyll a: 0.288
#Chlorophyll b: 0.578
#Beta Carotene: 0.290
#Manufacturer: Unknown
#Luminance manufacturer: Unknown
#Other data:
#Begin Processed Spectral Data
W	S
300.00000000	0.00000000
301.00000000	0.00000000
302.00000000	0.00000000
303.00000000	0.00000000
304.00000000	0.00466542
305.00000000	0.00000000
306.00000000	0.00000000
307.00000000	0.00000000
308.00000000	0.00000000
309.00000000	0.00000000
310.00000000	0.00000000
311.00000000	0.00000000
312.00000000	0.00833035
313.00000000	0.00000000
314.00000000	0.00000000
315.00000000	0.00000000
316.00000000	0.00000000
317.00000000	0.00000000
318.00000000	0.00087984
319.00000000	0.00000000
320.00000000	0.00140942
321.00000000	0.00121400
322.00000000	0.00000000
323.00000000	0.00000000
324.00000000	0.00000000
325.00000000	0.00000000
326.00000000	0.00000000
327.00000000	0.00000000
328.00000000	0.00000000
329.00000000	0.00000000
330.00000000	0.00000000
331.00000000	0.00859327
332.00000000	0.00000000
333.00000000	0.00000000
334.00000000	0.00030813
335.00000000	0.00000000
336.00000000	0.00016234
337.00000000	0.00000000
338.00000000	0.00000000
339.00000000	0.00000000
340.00000000	0.00342650
341.00000000	0.01604312
342.00000000	0.00027725
343.00000000	0.00000000
344.00000000	0.00000000
345.00000000	0.00000000
346.00000000	0.00000000
347.00000000	0.00107306
348.00000000	0.00000000
349.00000000	0.00000000
350.00000000	0.00605786
351.00000000	0.02174476
352.00000000	0.02833550
353.00000000	0.03705339
354.00000000	0.03263986
355.00000000	0.03655425
356.00000000	0.02974272
357.00000000	0.03039096
358.00000000	0.03268860
359.00000000	0.03148850
360.00000000	0.02849608
361.00000000	0.03115037
362.00000000	0.02731803
363.00000000	0.02946194
364.00000000	0.05254267
365.00000000	0.10202961
366.00000000	0.10094111
367.00000000	0.07194347
368.00000000	0.05122964
369.00000000	0.04723033
370.00000000	0.04777932
371.00000000	0.04568063
372.00000000	0.04097947
373.00000000	0.04052665
374.00000000	0.05003571
375.00000000	0.04859696
376.00000000	0.05526975
377.00000000	0.05837290
378.00000000	0.02601559
379.00000000	0.00933261
380.00000000	0.01012444
381.00000000	0.00883391
382.00000000	0.01293865
383.00000000	0.02208752
384.00000000	0.03332317
385.00000000	0.02723003
386.00000000	0.02299515
387.00000000	0.03333376
388.00000000	0.03140888
389.00000000	0.02973676
390.00000000	0.03126441
391.00000000	0.03371710
392.00000000	0.03804418
393.00000000	0.04252763
394.00000000	0.05007806
395.00000000	0.04915896
396.00000000	0.05156490
397.00000000	0.06389853
398.00000000	0.05681989
399.00000000	0.05728308
400.00000000	0.06084920
401.00000000	0.06000509
402.00000000	0.05901144
403.00000000	0.06707954
404.00000000	0.07337119
405.00000000	0.10532156
406.00000000	0.08754744
407.00000000	0.07562715
408.00000000	0.07922547
409.00000000	0.08363591
410.00000000	0.08354063
411.00000000	0.08540067
412.00000000	0.07108679
413.00000000	0.09401864
414.00000000	0.11272995
415.00000000	0.11033967
416.00000000	0.10652784
417.00000000	0.13834190
418.00000000	0.15715555
419.00000000	0.18940699
420.00000000	0.21669039
421.00000000	0.20688202
422.00000000	0.22898057
423.00000000	0.22694761
424.00000000	0.18591189
425.00000000	0.15818780
426.00000000	0.13809552
427.00000000	0.12402471
428.00000000	0.11724516
429.00000000	0.11655567
430.00000000	0.11360383
431.00000000	0.11648024
432.00000000	0.11508714
433.00000000	0.10624309
434.00000000	0.09972315
435.00000000	0.13644304
436.00000000	0.28398322
437.00000000	0.22424457
438.00000000	0.14810108
439.00000000	0.11079381
440.00000000	0.10137364
441.00000000	0.10298069
442.00000000	0.10406963
443.00000000	0.10088443
444.00000000	0.10330139
445.00000000	0.11252438
446.00000000	0.10269859
447.00000000	0.09474364
448.00000000	0.10011686
449.00000000	0.09793347
450.00000000	0.09934201
451.00000000	0.09022203
452.00000000	0.09191002
453.00000000	0.10139857
454.00000000	0.09452219
455.00000000	0.09313791
456.00000000	0.10858683
457.00000000	0.12541163
458.00000000	0.13004816
459.00000000	0.14381040
460.00000000	0.12704426
461.00000000	0.13447382
462.00000000	0.12283365
463.00000000	0.11177908
464.00000000	0.10306230
465.00000000	0.09824800
466.00000000	0.09442271
467.00000000	0.10571130
468.00000000	0.11227690
469.00000000	0.10652762
470.00000000	0.10266550
471.00000000	0.09742771
472.00000000	0.10775000
473.00000000	0.12575814
474.00000000	0.11684991
475.00000000	0.09500280
476.00000000	0.08443525
477.00000000	0.09853716
478.00000000	0.10757641
479.00000000	0.11601572
480.00000000	0.11361067
481.00000000	0.11528940
482.00000000	0.11765387
483.00000000	0.11514956
484.00000000	0.10785322
485.00000000	0.09561135
486.00000000	0.08920411
487.00000000	0.08483624
488.00000000	0.10684898
489.00000000	0.12068864
490.00000000	0.11478386
491.00000000	0.11237307
492.00000000	0.11697497
493.00000000	0.09807110
494.00000000	0.09705650
495.00000000	0.09001911
496.00000000	0.10103816
497.00000000	0.09842401
498.00000000	0.10768758
499.00000000	0.11813140
500.00000000	0.11339076
501.00000000	0.11361684
502.00000000	0.11407320
503.00000000	0.12007304
504.00000000	0.13531021
505.00000000	0.13764027
506.00000000	0.12509424
507.00000000	0.12218651
508.00000000	0.11605565
509.00000000	0.09973153
510.00000000	0.09516867
511.00000000	0.11245005
512.00000000	0.13698916
513.00000000	0.12962666
514.00000000	0.11874303
515.00000000	0.11734420
516.00000000	0.12379620
517.00000000	0.12298496
518.00000000	0.12258529
519.00000000	0.12533818
520.00000000	0.11629937
521.00000000	0.11107349
522.00000000	0.11470710
523.00000000	0.12173589
524.00000000	0.11484452
525.00000000	0.10599561
526.00000000	0.11887096
527.00000000	0.12076386
528.00000000	0.12449430
529.00000000	0.11394306
530.00000000	0.13081551
531.00000000	0.13944120
532.00000000	0.15541682
533.00000000	0.18291263
534.00000000	0.33412436
535.00000000	0.59116032
536.00000000	0.88102582
537.00000000	1.00000000
538.00000000	0.98549710
539.00000000	0.86068298
540.00000000	0.66458334
541.00000000	0.43745134
542.00000000	0.29762018
543.00000000	0.20206949
544.00000000	0.14153040
545.00000000	0.16228151
546.00000000	0.42980871
547.00000000	0.36556014
548.00000000	0.25938896
549.00000000	0.15295707
550.00000000	0.11268186
551.00000000	0.10162046
552.00000000	0.09387306
553.00000000	0.10271314
554.00000000	0.10325816
555.00000000	0.12059468
556.00000000	0.10900811
557.00000000	0.10831729
558.00000000	0.09536475
559.00000000	0.09100857
560.00000000	0.09673557
561.00000000	0.10235847
562.00000000	0.09750954
563.00000000	0.09859274
564.00000000	0.13258555
565.00000000	0.14290850
566.00000000	0.13655200
567.00000000	0.13799450
568.00000000	0.17036351
569.00000000	0.25385054
570.00000000	0.23327368
571.00000000	0.18706788
572.00000000	0.15294119
573.00000000	0.12362196
574.00000000	0.12327478
575.00000000	0.13177365
576.00000000	0.15467815
577.00000000	0.19990573
578.00000000	0.17908183
579.00000000	0.20609174
580.00000000	0.18079608
581.00000000	0.16180840
582.00000000	0.14189765
583.00000000	0.13306815
584.00000000	0.13622534
585.00000000	0.14691024
586.00000000	0.17045217
587.00000000	0.23038029
588.00000000	0.39945392
589.00000000	0.32151149
590.00000000	0.29785354
591.00000000	0.46821109
592.00000000	0.57405032
593.00000000	0.63315484
594.00000000	0.61718649
595.00000000	0.56946629
596.00000000	0.52412357
597.00000000	0.49007209
598.00000000	0.46133714
599.00000000	0.44229211
600.00000000	0.39084941
601.00000000	0.37684984
602.00000000	0.34669841
603.00000000	0.32746722
604.00000000	0.29229592
605.00000000	0.27218203
606.00000000	0.26227882
607.00000000	0.24742500
608.00000000	0.24651803
609.00000000	0.26446662
610.00000000	0.23615185
611.00000000	0.22600293
612.00000000	0.21259911
613.00000000	0.20395026
614.00000000	0.19305185
615.00000000	0.19530979
616.00000000	0.22256275
617.00000000	0.23994581
618.00000000	0.20135750
619.00000000	0.17966413
620.00000000	0.16162775
621.00000000	0.15263703
622.00000000	0.14509454
623.00000000	0.14801219
624.00000000	0.14326494
625.00000000	0.14986804
626.00000000	0.21458509
627.00000000	0.17656186
628.00000000	0.16249083
629.00000000	0.14220137
630.00000000	0.12245538
631.00000000	0.12774103
632.00000000	0.12652660
633.00000000	0.12623942
634.00000000	0.13020189
635.00000000	0.12292011
636.00000000	0.12021994
637.00000000	0.11762498
638.00000000	0.12438247
639.00000000	0.12808159
640.00000000	0.11989218
641.00000000	0.11558518
642.00000000	0.13038474
643.00000000	0.12975966
644.00000000	0.11999099
645.00000000	0.11378558
646.00000000	0.11064648
647.00000000	0.10611450
648.00000000	0.10773588
649.00000000	0.11194914
650.00000000	0.10650225
651.00000000	0.09914482
652.00000000	0.10002179
653.00000000	0.09866487
654.00000000	0.10211519
655.00000000	0.12985097
656.00000000	0.14458944
657.00000000	0.13470762
658.00000000	0.15836668
659.00000000	0.13089447
660.00000000	0.11366868
661.00000000	0.09986916
662.00000000	0.09359074
663.00000000	0.09254040
664.00000000	0.09510912
665.00000000	0.10296128
666.00000000	0.11157197
667.00000000	0.13087418
668.00000000	0.11480856
669.00000000	0.11095659
670.00000000	0.10758347
671.00000000	0.10794233
672.00000000	0.10917971
673.00000000	0.10195903
674.00000000	0.10196256
675.00000000	0.10405617
676.00000000	0.10071327
677.00000000	0.10436629
678.00000000	0.09812713
679.00000000	0.09382807
680.00000000	0.09033231
681.00000000	0.08155818
682.00000000	0.09372462
683.00000000	0.10792248
684.00000000	0.12383767
685.00000000	0.12085848
686.00000000	0.12202550
687.00000000	0.09570707
688.00000000	0.08662062
689.00000000	0.08240162
690.00000000	0.07900667
691.00000000	0.07575265
692.00000000	0.07082123
693.00000000	0.07260473
694.00000000	0.07040612
695.00000000	0.07080336
696.00000000	0.08536560
697.00000000	0.07532982
698.00000000	0.06835221
699.00000000	0.07294682
700.00000000	0.08071584
701.00000000	0.06824986
702.00000000	0.06731334
703.00000000	0.06221208
704.00000000	0.06200805
705.00000000	0.05345030
706.00000000	0.05663329
707.00000000	0.05484648
708.00000000	0.05005931
709.00000000	0.04850829
710.00000000	0.05244496
711.00000000	0.04344739
712.00000000	0.05282389
713.00000000	0.05446160
714.00000000	0.04478182
715.00000000	0.04195460
716.00000000	0.04754463
717.00000000	0.04434973
718.00000000	0.04065237
719.00000000	0.04458044
720.00000000	0.04204679
721.00000000	0.05394238
722.00000000	0.04371869
723.00000000	0.04626821
724.00000000	0.05006593
725.00000000	0.05148505
726.00000000	0.04866643
727.00000000	0.04340173
728.00000000	0.04238338
729.00000000	0.03537488
730.00000000	0.03398950
731.00000000	0.03767318
732.00000000	0.03618127
733.00000000	0.03971497
734.00000000	0.03898070
735.00000000	0.03392642
736.00000000	0.03952947
737.00000000	0.04631453
738.00000000	0.05349971
739.00000000	0.04558622
740.00000000	0.04653334
741.00000000	0.05341920
742.00000000	0.04196938
743.00000000	0.04745133
744.00000000	0.03270559
745.00000000	0.02976058
746.00000000	0.03517946
747.00000000	0.03099774
748.00000000	0.02946745
749.00000000	0.03272544
750.00000000	0.03222938
751.00000000	0.03730572
752.00000000	0.03539010
753.00000000	0.03553612
754.00000000	0.04112659
755.00000000	0.05283271
756.00000000	0.05234372
757.00000000	0.03820695
758.00000000	0.03889644
759.00000000	0.03608577
760.00000000	0.03730109
761.00000000	0.03316348
762.00000000	0.03921605
763.00000000	0.03352389
764.00000000	0.04820523
765.00000000	0.04972714
766.00000000	0.06206959
767.00000000	0.07912754
768.00000000	0.06088228
769.00000000	0.05299703
770.00000000	0.04090029
771.00000000	0.03793830
772.00000000	0.04743391
773.00000000	0.03628803
774.00000000	0.02539205
775.00000000	0.03428617
776.00000000	0.03196669
777.00000000	0.01895680
778.00000000	0.03301967
779.00000000	0.03535878
780.00000000	0.03840723
781.00000000	0.04644136
782.00000000	0.02854129
783.00000000	0.02832359
784.00000000	0.03277507
785.00000000	0.02331299
786.00000000	0.01991340
787.00000000	0.01624979
788.00000000	0.01264507
789.00000000	0.02383749
790.00000000	0.01291835
791.00000000	0.02263408
792.00000000	0.02152155
793.00000000	0.02692410
794.00000000	0.02278760
795.00000000	0.02886950
796.00000000	0.02637114
797.00000000	0.03584028
798.00000000	0.01828937
799.00000000	0.02240227
800.00000000	0.02591346
801.00000000	0.01745232
802.00000000	0.02537925
803.00000000	0.00837336
804.00000000	0.01498065
805.00000000	0.01435755
806.00000000	0.01832377
807.00000000	0.02182769
808.00000000	0.01967386
809.00000000	0.02976257
810.00000000	0.02583208
811.00000000	0.01341044
812.00000000	0.02659281
813.00000000	0.02454485
814.00000000	0.02490239
815.00000000	0.02699711
816.00000000	0.03786728
817.00000000	0.05464621
818.00000000	0.31115766
819.00000000	0.68236783
820.00000000	0.73471331
821.00000000	0.51327192
822.00000000	0.30687867
823.00000000	0.14711470
824.00000000	0.09855944
825.00000000	0.06533971
826.00000000	0.03594725
827.00000000	0.03803116
828.00000000	0.03654697
829.00000000	0.03361564
830.00000000	0.03438498
831.00000000	0.03020150
832.00000000	0.04057275
833.00000000	0.03573793
834.00000000	0.04204106
835.00000000	0.01814004
836.00000000	0.02258754
837.00000000	0.00068023
838.00000000	0.01902826
839.00000000	0.01883902
840.00000000	0.01024046
841.00000000	0.00540233
842.00000000	0.00122084
843.00000000	0.02445795
844.00000000	0.03045294
845.00000000	0.01673768
846.00000000	0.00341304
847.00000000	0.02754874
848.00000000	0.02127848
849.00000000	0.02831654
850.00000000	0.02078728
851.00000000	0.03353889
852.00000000	0.01471376
853.00000000	0.00000000
854.00000000	0.01038780
855.00000000	0.00507986
856.00000000	0.00388373
857.00000000	0.00549277
858.00000000	0.02234294
859.00000000	0.01230275
860.00000000	0.00304580
861.00000000	0.01874285
862.00000000	0.00347348
863.00000000	0.02570260
864.00000000	0.02168719
865.00000000	0.00000000
866.00000000	0.01684796
867.00000000	0.01444534
868.00000000	0.00836498
869.00000000	0.03149931
870.00000000	0.01744394
871.00000000	0.01110839
872.00000000	0.00451036
873.00000000	0.00458138
874.00000000	0.02341180
875.00000000	0.03269015
876.00000000	0.00622240
877.00000000	0.02056230
878.00000000	0.00720855
879.00000000	0.01623523
880.00000000	0.00772953
881.00000000	0.01583821
882.00000000	0.02239697
883.00000000	0.00000000
884.00000000	0.02464411
885.00000000	0.02539249
886.00000000	0.00000000
887.00000000	0.00000000
888.00000000	0.00000000
889.00000000	0.00232212
890.00000000	0.00000000
891.00000000	0.00000000
892.00000000	0.00000000
893.00000000	0.01115228
894.00000000	0.01114059
895.00000000	0.00000000
896.00000000	0.03788140
897.00000000	0.00000000
898.00000000	0.01816078
899.00000000	0.03055992
900.00000000	0.00000000
