#LICA Lamps Spectra Database
#Website 1: https://guaix.fis.ucm.es/lamps_spectra
#Website 2: http://carlostapia.es/lamparas/lamps.html
#Latest update: 2017/12/15
#Tester: Carlos Eugenio Tapia Ayuga
#Correct for Electrical Dark: Yes (JAZA2310)
#Correct for Detector Non-linearity: Yes (JAZA2310)
#Correct for Flux: Yes
#Start wavelength (nm): 300
#End wavelength (nm): 900
#Steps (nm):	1
#Locus: D65 sRGB Gamma 1 CIE1931
#XYZ coordinates: 0.1250	0.1264	0.0725
#xyY coordinates: 0.3859	0.3904	0.1264
#sRGB: 44	30	15
#CCT Lindbloom (K):	3952
#CCT McCamy (K):	3961
#CCT Hernández-Andrés (K):	3948
#Melatonin: 0.471
#Chlorophyll a: 0.050
#Chlorophyll b: 0.513
#Beta Carotene: 0.050
#Manufacturer: Unknown
#Luminance manufacturer: Unknown
#Other data:
#Begin Processed Spectral Data
W	S
475.00000000	0.02764244
476.00000000	0.02785540
477.00000000	0.02391460
478.00000000	0.02526540
479.00000000	0.02665427
480.00000000	0.02738427
481.00000000	0.03412850
482.00000000	0.03593924
483.00000000	0.05073305
484.00000000	0.07253830
485.00000000	0.09562629
486.00000000	0.12562174
487.00000000	0.14595960
488.00000000	0.14860647
489.00000000	0.13722189
490.00000000	0.12687475
491.00000000	0.11113940
492.00000000	0.10518276
493.00000000	0.09444967
494.00000000	0.08277885
495.00000000	0.07514519
496.00000000	0.06875145
497.00000000	0.06027738
498.00000000	0.05333971
499.00000000	0.04630757
500.00000000	0.04071950
501.00000000	0.03366452
502.00000000	0.02722795
503.00000000	0.02217334
504.00000000	0.02018177
505.00000000	0.01675754
506.00000000	0.01401241
507.00000000	0.01094867
508.00000000	0.00908534
509.00000000	0.01177528
510.00000000	0.01185237
511.00000000	0.00875222
512.00000000	0.00878720
513.00000000	0.00762795
514.00000000	0.00977085
515.00000000	0.00961881
516.00000000	0.00724177
517.00000000	0.00796749
518.00000000	0.00642039
519.00000000	0.00587979
520.00000000	0.00575701
521.00000000	0.00617222
522.00000000	0.00409570
523.00000000	0.00386251
524.00000000	0.00488804
525.00000000	0.00521379
526.00000000	0.00551692
527.00000000	0.00624526
528.00000000	0.00567468
529.00000000	0.00827325
530.00000000	0.00655578
531.00000000	0.00828800
532.00000000	0.00920526
533.00000000	0.01659693
534.00000000	0.02541340
535.00000000	0.02382109
536.00000000	0.02755464
537.00000000	0.04218451
538.00000000	0.06945576
539.00000000	0.10068042
540.00000000	0.16559720
541.00000000	0.31189325
542.00000000	0.51843694
543.00000000	0.54876741
544.00000000	0.55764075
545.00000000	0.57649956
546.00000000	1.00000000
547.00000000	0.91519436
548.00000000	0.60690927
549.00000000	0.47403957
550.00000000	0.31178570
551.00000000	0.22468535
552.00000000	0.17171707
553.00000000	0.12936314
554.00000000	0.09712866
555.00000000	0.07268225
556.00000000	0.05371685
557.00000000	0.03865892
558.00000000	0.03128938
559.00000000	0.02262615
560.00000000	0.02140646
561.00000000	0.01837888
562.00000000	0.01617221
563.00000000	0.01414780
564.00000000	0.01151663
565.00000000	0.01158706
566.00000000	0.01103670
567.00000000	0.01022841
568.00000000	0.01000332
569.00000000	0.01124538
570.00000000	0.00918480
571.00000000	0.00858995
572.00000000	0.00861636
573.00000000	0.00579413
574.00000000	0.00908820
575.00000000	0.00941846
576.00000000	0.01999641
577.00000000	0.10741656
578.00000000	0.09504833
579.00000000	0.14122646
580.00000000	0.15128522
581.00000000	0.10943930
582.00000000	0.10934722
583.00000000	0.11836356
584.00000000	0.12950638
585.00000000	0.12680312
586.00000000	0.12279523
587.00000000	0.14595841
588.00000000	0.15926913
589.00000000	0.12020618
590.00000000	0.10349527
591.00000000	0.09190369
592.00000000	0.09011246
593.00000000	0.11617925
594.00000000	0.11651237
595.00000000	0.08897343
596.00000000	0.07510331
597.00000000	0.05965088
598.00000000	0.05836052
599.00000000	0.06847591
600.00000000	0.07866055
601.00000000	0.06661878
602.00000000	0.05423508
603.00000000	0.04454727
604.00000000	0.03664070
605.00000000	0.03598897
606.00000000	0.03984863
607.00000000	0.05040683
608.00000000	0.06329282
609.00000000	0.10186632
610.00000000	0.20734770
611.00000000	0.59991734
612.00000000	0.89078032
613.00000000	0.64851082
614.00000000	0.55158655
615.00000000	0.44570139
616.00000000	0.30233750
617.00000000	0.20808175
618.00000000	0.15245899
619.00000000	0.12010720
620.00000000	0.10539572
621.00000000	0.10323449
622.00000000	0.10473257
623.00000000	0.10775777
624.00000000	0.11209379
625.00000000	0.11335559
626.00000000	0.11382743
627.00000000	0.11290136
628.00000000	0.10552159
629.00000000	0.09490533
630.00000000	0.10216113
631.00000000	0.14034393
632.00000000	0.12686380
633.00000000	0.08850659
634.00000000	0.06154728
635.00000000	0.04113233
636.00000000	0.03033380
637.00000000	0.02392983
638.00000000	0.02022008
639.00000000	0.01656481
640.00000000	0.01483331
641.00000000	0.01510028
642.00000000	0.01360148
643.00000000	0.01698763
644.00000000	0.01672257
645.00000000	0.01690650
646.00000000	0.01419396
647.00000000	0.01579578
648.00000000	0.01526374
649.00000000	0.02097221
650.00000000	0.02695883
651.00000000	0.03966875
652.00000000	0.03265874
653.00000000	0.03171791
654.00000000	0.02798008
655.00000000	0.02390413
656.00000000	0.02093271
657.00000000	0.02111664
658.00000000	0.02105311
659.00000000	0.01833129
660.00000000	0.01307396
661.00000000	0.01471600
662.00000000	0.01965211
663.00000000	0.02633186
664.00000000	0.02274226
665.00000000	0.01793750
666.00000000	0.01554356
667.00000000	0.01258785
668.00000000	0.01246340
669.00000000	0.01067598
670.00000000	0.01365549
671.00000000	0.01329002
672.00000000	0.01069811
673.00000000	0.01140313
674.00000000	0.01193446
675.00000000	0.00677540
676.00000000	0.00848977
677.00000000	0.00771123
678.00000000	0.01063791
679.00000000	0.01176148
680.00000000	0.00692768
681.00000000	0.01208912
682.00000000	0.00446927
683.00000000	0.01013181
684.00000000	0.00695576
685.00000000	0.00710043
686.00000000	0.01290955
687.00000000	0.01412376
688.00000000	0.02361599
689.00000000	0.02209625
690.00000000	0.01519926
691.00000000	0.01211101
692.00000000	0.00805886
693.00000000	0.01004734
694.00000000	0.01954123
695.00000000	0.01312227
696.00000000	0.00056821
697.00000000	0.00932733
698.00000000	0.00200728
699.00000000	0.00376972
700.00000000	0.00000000
701.00000000	0.00563946
702.00000000	0.00203203
703.00000000	0.00209294
704.00000000	0.00924381
705.00000000	0.00786993
706.00000000	0.02027695
707.00000000	0.04498984
708.00000000	0.05402474
709.00000000	0.06550402
710.00000000	0.07074779
711.00000000	0.04362501
712.00000000	0.05381868
713.00000000	0.06026120
714.00000000	0.03471360
715.00000000	0.02167700
716.00000000	0.01016560
717.00000000	0.00862564
718.00000000	0.00554857
719.00000000	0.00263973
720.00000000	0.00210388
721.00000000	0.00390082
722.00000000	0.00073524
723.00000000	0.00429295
724.00000000	0.00064102
725.00000000	0.00066124
