#LICA Lamps Spectra Database
#Website 1: https://guaix.fis.ucm.es/lamps_spectra
#Website 2: http://carlostapia.es/lamparas/lamps.html
#Latest update: 2017/12/26
#Tester: Carlos Eugenio Tapia Ayuga
#Correct for Electrical Dark: Yes (JAZA2310)
#Correct for Detector Non-linearity: Yes (JAZA2310)
#Correct for Flux: Yes
#Start wavelength (nm): 300
#End wavelength (nm): 900
#Steps (nm):	1
#Locus: D65 sRGB Gamma 1 CIE1931
#XYZ coordinates: 0.8008	0.7186	0.2605
#xyY coordinates: 0.4499	0.4037	0.7186
#sRGB: 255	109	33
#CCT Lindbloom (K):	2790
#CCT McCamy (K):	2790
#CCT Hernández-Andrés (K):	2719
#Melatonin: 0.307
#Chlorophyll a: 0.328
#Chlorophyll b: 0.599
#Beta Carotene: 0.328
#Manufacturer: Unknown
#Luminance manufacturer: Unknown
#Other data: Riba-Roja de Turia streetlamps. Plaça de la Torre.
#Begin Processed Spectral Data
W	S
475.00000000	0.21103113
476.00000000	0.19760676
477.00000000	0.19138800
478.00000000	0.17992940
479.00000000	0.17645245
480.00000000	0.17237185
481.00000000	0.16906711
482.00000000	0.16568198
483.00000000	0.16648457
484.00000000	0.16756067
485.00000000	0.16722601
486.00000000	0.17212885
487.00000000	0.17330550
488.00000000	0.17468425
489.00000000	0.17877649
490.00000000	0.18379809
491.00000000	0.18771198
492.00000000	0.19248874
493.00000000	0.19868477
494.00000000	0.20469127
495.00000000	0.21132017
496.00000000	0.21608699
497.00000000	0.22722947
498.00000000	0.23580761
499.00000000	0.24287995
500.00000000	0.25241419
501.00000000	0.26088264
502.00000000	0.27409251
503.00000000	0.28360737
504.00000000	0.29008421
505.00000000	0.29896031
506.00000000	0.30851669
507.00000000	0.31784477
508.00000000	0.32817864
509.00000000	0.33882637
510.00000000	0.34707783
511.00000000	0.35821649
512.00000000	0.36521151
513.00000000	0.37366052
514.00000000	0.38259595
515.00000000	0.39051879
516.00000000	0.39684166
517.00000000	0.40481263
518.00000000	0.41146139
519.00000000	0.41575191
520.00000000	0.42371102
521.00000000	0.42877634
522.00000000	0.43514565
523.00000000	0.44292993
524.00000000	0.45342132
525.00000000	0.45604135
526.00000000	0.46022205
527.00000000	0.46885409
528.00000000	0.47606892
529.00000000	0.48033344
530.00000000	0.48797323
531.00000000	0.49218989
532.00000000	0.49727214
533.00000000	0.50270735
534.00000000	0.50645911
535.00000000	0.51448055
536.00000000	0.51752867
537.00000000	0.52448237
538.00000000	0.53080323
539.00000000	0.53792035
540.00000000	0.54372854
541.00000000	0.55319735
542.00000000	0.55825036
543.00000000	0.56579760
544.00000000	0.57095520
545.00000000	0.57759649
546.00000000	0.58357423
547.00000000	0.58934732
548.00000000	0.59939555
549.00000000	0.60365732
550.00000000	0.61206109
551.00000000	0.62038160
552.00000000	0.62848522
553.00000000	0.63794712
554.00000000	0.64508992
555.00000000	0.64920855
556.00000000	0.66410046
557.00000000	0.67157055
558.00000000	0.68223288
559.00000000	0.69073381
560.00000000	0.69892185
561.00000000	0.70914204
562.00000000	0.71504044
563.00000000	0.72521510
564.00000000	0.72831485
565.00000000	0.73777259
566.00000000	0.75143130
567.00000000	0.75912363
568.00000000	0.76685694
569.00000000	0.77536219
570.00000000	0.77935116
571.00000000	0.79084820
572.00000000	0.79963542
573.00000000	0.80450937
574.00000000	0.81213742
575.00000000	0.82036952
576.00000000	0.82492524
577.00000000	0.83347858
578.00000000	0.84173042
579.00000000	0.85394100
580.00000000	0.86202621
581.00000000	0.86692114
582.00000000	0.88021644
583.00000000	0.88385421
584.00000000	0.88685145
585.00000000	0.90466919
586.00000000	0.91115712
587.00000000	0.91762568
588.00000000	0.92285911
589.00000000	0.92527237
590.00000000	0.93132414
591.00000000	0.93900150
592.00000000	0.94033063
593.00000000	0.94929069
594.00000000	0.95370738
595.00000000	0.95946770
596.00000000	0.96115417
597.00000000	0.96179355
598.00000000	0.97085907
599.00000000	0.97777772
600.00000000	0.98512915
601.00000000	0.98475380
602.00000000	0.99100368
603.00000000	1.00000000
604.00000000	0.99816688
605.00000000	0.99372804
606.00000000	0.99742099
607.00000000	0.99314909
608.00000000	0.99254768
609.00000000	0.99159827
610.00000000	0.99256948
611.00000000	0.99482774
612.00000000	0.98848689
613.00000000	0.98542294
614.00000000	0.98993212
615.00000000	0.99716864
616.00000000	0.99488627
617.00000000	0.99501826
618.00000000	0.99895485
619.00000000	0.99542791
620.00000000	0.99462168
621.00000000	0.98923713
622.00000000	0.98378997
623.00000000	0.98402921
624.00000000	0.97943658
625.00000000	0.97734388
626.00000000	0.97162976
627.00000000	0.96960569
628.00000000	0.97049034
629.00000000	0.95913590
630.00000000	0.95474820
631.00000000	0.94512655
632.00000000	0.93528781
633.00000000	0.92877265
634.00000000	0.92432688
635.00000000	0.91665637
636.00000000	0.90526807
637.00000000	0.90061577
638.00000000	0.89457816
639.00000000	0.88252124
640.00000000	0.87137936
641.00000000	0.86194293
642.00000000	0.85300992
643.00000000	0.84380642
644.00000000	0.83776662
645.00000000	0.82236801
646.00000000	0.81683492
647.00000000	0.80293053
648.00000000	0.79316212
649.00000000	0.78834000
650.00000000	0.77575902
651.00000000	0.76028830
652.00000000	0.75283324
653.00000000	0.73867670
654.00000000	0.73149658
655.00000000	0.71612140
656.00000000	0.70292555
657.00000000	0.69211352
658.00000000	0.67738841
659.00000000	0.67109375
660.00000000	0.66191943
661.00000000	0.64753654
662.00000000	0.63726861
663.00000000	0.62599150
664.00000000	0.61079219
665.00000000	0.60164540
666.00000000	0.58856125
667.00000000	0.57843886
668.00000000	0.56256103
669.00000000	0.55947778
670.00000000	0.55032247
671.00000000	0.53912241
672.00000000	0.52592042
673.00000000	0.51672334
674.00000000	0.50604641
675.00000000	0.50195557
676.00000000	0.48505689
677.00000000	0.47684089
678.00000000	0.46976741
679.00000000	0.45628265
680.00000000	0.44987848
681.00000000	0.43715842
682.00000000	0.42859023
683.00000000	0.42071940
684.00000000	0.40944880
685.00000000	0.39703025
686.00000000	0.39207898
687.00000000	0.37848617
688.00000000	0.36998300
689.00000000	0.35777515
690.00000000	0.35412088
691.00000000	0.34810025
692.00000000	0.33930197
693.00000000	0.33327884
694.00000000	0.32241319
695.00000000	0.31359994
696.00000000	0.30752806
697.00000000	0.29993276
698.00000000	0.29155336
699.00000000	0.28961939
700.00000000	0.28186612
701.00000000	0.27257389
702.00000000	0.26812635
703.00000000	0.26378957
704.00000000	0.25262768
705.00000000	0.24653372
706.00000000	0.23874756
707.00000000	0.23422302
708.00000000	0.22696180
709.00000000	0.22263924
710.00000000	0.21716653
711.00000000	0.21031513
712.00000000	0.20396832
713.00000000	0.19904392
714.00000000	0.19359130
715.00000000	0.18899825
716.00000000	0.18452745
717.00000000	0.17893306
718.00000000	0.17615212
719.00000000	0.17225114
720.00000000	0.16329533
721.00000000	0.16107511
722.00000000	0.15784567
723.00000000	0.14995636
724.00000000	0.14904284
725.00000000	0.14624374
