#LICA Lamps Spectra Database
#Website 1: https://guaix.fis.ucm.es/lamps_spectra
#Website 2: http://carlostapia.es/lamparas/lamps.html
#Latest update: 2018/04/18
#Tester: Carlos Eugenio Tapia Ayuga
#Correct for Electrical Dark: Yes (JAZA2310)
#Correct for Detector Non-linearity: Yes (JAZA2310)
#Correct for Flux: Yes
#Start wavelength (nm): 300
#End wavelength (nm): 900
#Steps (nm):	1
#Locus: D65 sRGB Gamma 1 CIE1931
#XYZ coordinates: 0.5343	0.5406	0.4208
#xyY coordinates: 0.3572	0.3614	0.5406
#sRGB: 176	131	93
#CCT Lindbloom (K):	4606
#CCT McCamy (K):	4613
#CCT Hernández-Andrés (K):	4619
#Melatonin: 0.553
#Chlorophyll a: 0.072
#Chlorophyll b: 0.813
#Beta Carotene: 0.073
#Manufacturer: alverlamp
#Luminance manufacturer: 950lm
#Other data: Projector lamp 4000K. 10W
#Begin Processed Spectral Data
W	S
475.00000000	0.08003222
476.00000000	0.07531257
477.00000000	0.07224745
478.00000000	0.06753244
479.00000000	0.06629285
480.00000000	0.06376542
481.00000000	0.06262242
482.00000000	0.06040403
483.00000000	0.05965923
484.00000000	0.05912612
485.00000000	0.05940119
486.00000000	0.06054162
487.00000000	0.06197613
488.00000000	0.06365576
489.00000000	0.06674055
490.00000000	0.07058914
491.00000000	0.07482309
492.00000000	0.07981359
493.00000000	0.08565375
494.00000000	0.09242471
495.00000000	0.09937923
496.00000000	0.10775093
497.00000000	0.11794595
498.00000000	0.12745286
499.00000000	0.13758861
500.00000000	0.14857137
501.00000000	0.15986822
502.00000000	0.17268515
503.00000000	0.18680169
504.00000000	0.19716522
505.00000000	0.21047603
506.00000000	0.22412068
507.00000000	0.23790139
508.00000000	0.25124933
509.00000000	0.26617692
510.00000000	0.28122970
511.00000000	0.29558173
512.00000000	0.31106341
513.00000000	0.32480890
514.00000000	0.33745922
515.00000000	0.35278882
516.00000000	0.36405929
517.00000000	0.37489590
518.00000000	0.38609983
519.00000000	0.39712360
520.00000000	0.40919502
521.00000000	0.41742672
522.00000000	0.42916960
523.00000000	0.43996236
524.00000000	0.45194012
525.00000000	0.46004075
526.00000000	0.46991097
527.00000000	0.47842742
528.00000000	0.48752406
529.00000000	0.49362343
530.00000000	0.50194585
531.00000000	0.50842490
532.00000000	0.51567410
533.00000000	0.51858138
534.00000000	0.52449110
535.00000000	0.53376926
536.00000000	0.53787353
537.00000000	0.54220102
538.00000000	0.54626195
539.00000000	0.55408383
540.00000000	0.55655611
541.00000000	0.56710416
542.00000000	0.56935096
543.00000000	0.57569493
544.00000000	0.57503791
545.00000000	0.58288034
546.00000000	0.58475182
547.00000000	0.58759083
548.00000000	0.59591458
549.00000000	0.59595385
550.00000000	0.60218675
551.00000000	0.60765854
552.00000000	0.61136708
553.00000000	0.61583948
554.00000000	0.61962566
555.00000000	0.62336419
556.00000000	0.63148226
557.00000000	0.63523886
558.00000000	0.64167846
559.00000000	0.64487408
560.00000000	0.64969934
561.00000000	0.65434453
562.00000000	0.65332876
563.00000000	0.65291789
564.00000000	0.65441346
565.00000000	0.65775165
566.00000000	0.65911412
567.00000000	0.66122107
568.00000000	0.65966860
569.00000000	0.66204155
570.00000000	0.65863574
571.00000000	0.65869078
572.00000000	0.66021900
573.00000000	0.65968463
574.00000000	0.65809462
575.00000000	0.65497906
576.00000000	0.65517074
577.00000000	0.65562778
578.00000000	0.65217381
579.00000000	0.64855310
580.00000000	0.64311665
581.00000000	0.64245692
582.00000000	0.64024095
583.00000000	0.64370656
584.00000000	0.64489673
585.00000000	0.64498939
586.00000000	0.63950995
587.00000000	0.63709701
588.00000000	0.63306949
589.00000000	0.62530493
590.00000000	0.62158290
591.00000000	0.61801448
592.00000000	0.61186856
593.00000000	0.60675245
594.00000000	0.60058173
595.00000000	0.59820615
596.00000000	0.59230262
597.00000000	0.58691322
598.00000000	0.58276984
599.00000000	0.57617828
600.00000000	0.57209929
601.00000000	0.56477726
602.00000000	0.56056618
603.00000000	0.55558506
604.00000000	0.54816907
605.00000000	0.53583385
606.00000000	0.52870023
607.00000000	0.51743076
608.00000000	0.50832093
609.00000000	0.49997104
610.00000000	0.49142136
611.00000000	0.48603342
612.00000000	0.47712319
613.00000000	0.47019104
614.00000000	0.46365201
615.00000000	0.45990634
616.00000000	0.45555071
617.00000000	0.44973754
618.00000000	0.44735757
619.00000000	0.43789852
620.00000000	0.43137260
621.00000000	0.41903820
622.00000000	0.40895887
623.00000000	0.40169083
624.00000000	0.39129896
625.00000000	0.38416052
626.00000000	0.37760908
627.00000000	0.36887492
628.00000000	0.36171847
629.00000000	0.35232340
630.00000000	0.34356121
631.00000000	0.33574503
632.00000000	0.32880505
633.00000000	0.32042608
634.00000000	0.31474427
635.00000000	0.30629794
636.00000000	0.29885179
637.00000000	0.29285798
638.00000000	0.28555000
639.00000000	0.27837879
640.00000000	0.27087443
641.00000000	0.26614963
642.00000000	0.25985716
643.00000000	0.25261359
644.00000000	0.24837335
645.00000000	0.24126482
646.00000000	0.23533068
647.00000000	0.22992399
648.00000000	0.22607918
649.00000000	0.22136900
650.00000000	0.21535818
651.00000000	0.20853514
652.00000000	0.20360319
653.00000000	0.19740909
654.00000000	0.19317977
655.00000000	0.18764085
656.00000000	0.18216905
657.00000000	0.17695277
658.00000000	0.17302657
659.00000000	0.16927671
660.00000000	0.16424936
661.00000000	0.16060839
662.00000000	0.15593865
663.00000000	0.15172770
664.00000000	0.14667082
665.00000000	0.14319190
666.00000000	0.13902683
667.00000000	0.13578358
668.00000000	0.13251742
669.00000000	0.12888810
670.00000000	0.12562337
671.00000000	0.12366359
672.00000000	0.11915617
673.00000000	0.11542898
674.00000000	0.11132740
675.00000000	0.11011199
676.00000000	0.10609265
677.00000000	0.10426336
678.00000000	0.10015373
679.00000000	0.09749573
680.00000000	0.09437068
681.00000000	0.09127987
682.00000000	0.08910128
683.00000000	0.08682416
684.00000000	0.08368580
685.00000000	0.08169196
686.00000000	0.07857428
687.00000000	0.07651493
688.00000000	0.07469922
689.00000000	0.07196750
690.00000000	0.07023280
691.00000000	0.06894168
692.00000000	0.06635199
693.00000000	0.06429775
694.00000000	0.06244467
695.00000000	0.06011634
696.00000000	0.05849941
697.00000000	0.05718894
698.00000000	0.05572400
699.00000000	0.05404544
700.00000000	0.05331155
701.00000000	0.05163540
702.00000000	0.05038939
703.00000000	0.04827651
704.00000000	0.04696171
705.00000000	0.04545234
706.00000000	0.04354554
707.00000000	0.04262878
708.00000000	0.04056565
709.00000000	0.04025323
710.00000000	0.03987883
711.00000000	0.03791152
712.00000000	0.03679642
713.00000000	0.03574366
714.00000000	0.03423256
715.00000000	0.03369779
716.00000000	0.03258529
717.00000000	0.03141871
718.00000000	0.03040417
719.00000000	0.02976311
720.00000000	0.02857503
721.00000000	0.02758806
722.00000000	0.02730636
723.00000000	0.02593148
724.00000000	0.02580872
725.00000000	0.02506608
