#LICA Lamps Spectra Database
#Website 1: https://guaix.fis.ucm.es/lamps_spectra
#Website 2: http://carlostapia.es/lamparas/lamps.html
#Latest update: 2018/04/18
#Tester: Carlos Eugenio Tapia Ayuga
#Correct for Electrical Dark: Yes (JAZA2310)
#Correct for Detector Non-linearity: Yes (JAZA2310)
#Correct for Flux: Yes
#Start wavelength (nm): 300
#End wavelength (nm): 900
#Steps (nm):	1
#Locus: D65 sRGB Gamma 1 CIE1931
#XYZ coordinates: 0.8327	0.8256	0.4804
#xyY coordinates: 0.3893	0.3861	0.8256
#sRGB: 255	163	83
#CCT Lindbloom (K):	3836
#CCT McCamy (K):	3845
#CCT Hernández-Andrés (K):	3836
#Melatonin: 0.458
#Chlorophyll a: 0.133
#Chlorophyll b: 0.710
#Beta Carotene: 0.133
#Manufacturer: Lexman
#Luminance manufacturer: 470lm
#Other data: 4000K. 5W
#Begin Processed Spectral Data
W	S
475.00000000	0.28336892
476.00000000	0.27267520
477.00000000	0.26717244
478.00000000	0.25916108
479.00000000	0.26177999
480.00000000	0.26106589
481.00000000	0.26436830
482.00000000	0.26480790
483.00000000	0.27007675
484.00000000	0.27387213
485.00000000	0.28115249
486.00000000	0.28965709
487.00000000	0.29559428
488.00000000	0.30117811
489.00000000	0.31234144
490.00000000	0.31976654
491.00000000	0.32981280
492.00000000	0.34060784
493.00000000	0.35289694
494.00000000	0.36610110
495.00000000	0.37731410
496.00000000	0.39108069
497.00000000	0.40843888
498.00000000	0.42046153
499.00000000	0.43630916
500.00000000	0.44894097
501.00000000	0.46218966
502.00000000	0.47821561
503.00000000	0.49460476
504.00000000	0.50226945
505.00000000	0.51427418
506.00000000	0.52600553
507.00000000	0.53830357
508.00000000	0.54963984
509.00000000	0.56270322
510.00000000	0.57292087
511.00000000	0.58545190
512.00000000	0.59751664
513.00000000	0.60351730
514.00000000	0.61467810
515.00000000	0.62352453
516.00000000	0.63024735
517.00000000	0.63567490
518.00000000	0.63981788
519.00000000	0.64480693
520.00000000	0.65153721
521.00000000	0.65633322
522.00000000	0.66251306
523.00000000	0.66868807
524.00000000	0.67830485
525.00000000	0.68063644
526.00000000	0.68752842
527.00000000	0.69215028
528.00000000	0.69759484
529.00000000	0.70313339
530.00000000	0.70637038
531.00000000	0.70709854
532.00000000	0.71278455
533.00000000	0.71191800
534.00000000	0.71612923
535.00000000	0.72061673
536.00000000	0.72483565
537.00000000	0.72764111
538.00000000	0.73048453
539.00000000	0.73369966
540.00000000	0.73963448
541.00000000	0.74624718
542.00000000	0.74812443
543.00000000	0.75377157
544.00000000	0.75451815
545.00000000	0.75931596
546.00000000	0.76036406
547.00000000	0.76677110
548.00000000	0.77322153
549.00000000	0.77242210
550.00000000	0.77730124
551.00000000	0.78562405
552.00000000	0.78867923
553.00000000	0.79309486
554.00000000	0.79802620
555.00000000	0.80361285
556.00000000	0.81263817
557.00000000	0.81879677
558.00000000	0.82803247
559.00000000	0.83163716
560.00000000	0.83816149
561.00000000	0.84859763
562.00000000	0.84829359
563.00000000	0.84874197
564.00000000	0.85125630
565.00000000	0.85728925
566.00000000	0.86552241
567.00000000	0.87161157
568.00000000	0.87374213
569.00000000	0.87737536
570.00000000	0.87884847
571.00000000	0.88422862
572.00000000	0.88769497
573.00000000	0.89286917
574.00000000	0.89388985
575.00000000	0.89763095
576.00000000	0.90029345
577.00000000	0.90829194
578.00000000	0.91144089
579.00000000	0.91284489
580.00000000	0.91810567
581.00000000	0.91954647
582.00000000	0.92702103
583.00000000	0.93457635
584.00000000	0.94118767
585.00000000	0.95054505
586.00000000	0.95289502
587.00000000	0.95654910
588.00000000	0.95631716
589.00000000	0.95762691
590.00000000	0.95955694
591.00000000	0.96401525
592.00000000	0.96358951
593.00000000	0.96631802
594.00000000	0.96483695
595.00000000	0.96826199
596.00000000	0.96699647
597.00000000	0.96725855
598.00000000	0.96959838
599.00000000	0.97307018
600.00000000	0.97416402
601.00000000	0.96966440
602.00000000	0.97241351
603.00000000	0.97353364
604.00000000	0.97058920
605.00000000	0.96410329
606.00000000	0.95980323
607.00000000	0.94906428
608.00000000	0.94306057
609.00000000	0.93919489
610.00000000	0.93286056
611.00000000	0.92917225
612.00000000	0.92043068
613.00000000	0.91528361
614.00000000	0.91424113
615.00000000	0.91491003
616.00000000	0.90892567
617.00000000	0.90908785
618.00000000	0.90893385
619.00000000	0.90146329
620.00000000	0.89750522
621.00000000	0.88165495
622.00000000	0.87248736
623.00000000	0.86594264
624.00000000	0.85286595
625.00000000	0.84767102
626.00000000	0.83626257
627.00000000	0.82618176
628.00000000	0.81509887
629.00000000	0.80129493
630.00000000	0.78904149
631.00000000	0.77878678
632.00000000	0.76449798
633.00000000	0.75281748
634.00000000	0.74420092
635.00000000	0.73013230
636.00000000	0.71759055
637.00000000	0.70716017
638.00000000	0.69708326
639.00000000	0.68093400
640.00000000	0.66753891
641.00000000	0.65736822
642.00000000	0.64708873
643.00000000	0.63183224
644.00000000	0.62259863
645.00000000	0.60796597
646.00000000	0.59908818
647.00000000	0.58568413
648.00000000	0.57911373
649.00000000	0.56849915
650.00000000	0.55059513
651.00000000	0.54091576
652.00000000	0.53158330
653.00000000	0.51584500
654.00000000	0.50705467
655.00000000	0.49359416
656.00000000	0.47991747
657.00000000	0.47177557
658.00000000	0.45836816
659.00000000	0.45067649
660.00000000	0.43978944
661.00000000	0.43046308
662.00000000	0.42012636
663.00000000	0.40772175
664.00000000	0.39692547
665.00000000	0.38947070
666.00000000	0.37802763
667.00000000	0.36934252
668.00000000	0.35845159
669.00000000	0.35242585
670.00000000	0.34230568
671.00000000	0.33496357
672.00000000	0.32419307
673.00000000	0.31829967
674.00000000	0.30793848
675.00000000	0.29942429
676.00000000	0.29158298
677.00000000	0.28310785
678.00000000	0.27555219
679.00000000	0.26912450
680.00000000	0.25942349
681.00000000	0.25438406
682.00000000	0.24853321
683.00000000	0.23919779
684.00000000	0.23291220
685.00000000	0.22590370
686.00000000	0.21888108
687.00000000	0.21379718
688.00000000	0.20624389
689.00000000	0.19867673
690.00000000	0.19286315
691.00000000	0.19061529
692.00000000	0.18489796
693.00000000	0.17776494
694.00000000	0.17380096
695.00000000	0.16882129
696.00000000	0.16308276
697.00000000	0.15809211
698.00000000	0.15191258
699.00000000	0.14971923
700.00000000	0.14677315
701.00000000	0.14112948
702.00000000	0.13844936
703.00000000	0.13318759
704.00000000	0.12994979
705.00000000	0.12386211
706.00000000	0.12251669
707.00000000	0.11763546
708.00000000	0.11283585
709.00000000	0.11010874
710.00000000	0.10727580
711.00000000	0.10398182
712.00000000	0.10088128
713.00000000	0.09643751
714.00000000	0.09553929
715.00000000	0.09399300
716.00000000	0.08972132
717.00000000	0.08685648
718.00000000	0.08379582
719.00000000	0.08179991
720.00000000	0.07929358
721.00000000	0.07774802
722.00000000	0.07509820
723.00000000	0.07225740
724.00000000	0.06949393
725.00000000	0.06844169
