#LICA Lamps Spectra Database
#Website 1: https://guaix.fis.ucm.es/lamps_spectra
#Website 2: http://carlostapia.es/lamparas/lamps.html
#Latest update: 2017/12/15
#Tester: Carlos Eugenio Tapia Ayuga
#Correct for Electrical Dark: Yes (JAZA2310)
#Correct for Detector Non-linearity: Yes (JAZA2310)
#Correct for Flux: Yes
#Start wavelength (nm): 300
#End wavelength (nm): 900
#Steps (nm):	1
#Locus: D65 sRGB Gamma 1 CIE1931
#XYZ coordinates: 0.0866	0.3223	0.0495
#xyY coordinates: 0.1889	0.7032	0.3223
#sRGB: 0	133	0
#CCT Lindbloom (K):	7613
#CCT McCamy (K):	7686
#CCT Hernández-Andrés (K):	7629
#Melatonin: 0.437
#Chlorophyll a: -0.002
#Chlorophyll b: 0.114
#Beta Carotene: 0.000
#Manufacturer: Unknown
#Luminance manufacturer: Unknown
#Other data:
#Begin Processed Spectral Data
W	S
475.00000000	0.03597122
476.00000000	0.03956835
477.00000000	0.04316547
478.00000000	0.04316547
479.00000000	0.05035971
480.00000000	0.05395683
481.00000000	0.06115108
482.00000000	0.06474820
483.00000000	0.07553957
484.00000000	0.07913669
485.00000000	0.08633094
486.00000000	0.09352518
487.00000000	0.10071942
488.00000000	0.10791367
489.00000000	0.12230216
490.00000000	0.13309353
491.00000000	0.14388489
492.00000000	0.15467626
493.00000000	0.17266187
494.00000000	0.19064748
495.00000000	0.20863309
496.00000000	0.23021583
497.00000000	0.25179856
498.00000000	0.27697842
499.00000000	0.30215827
500.00000000	0.33453237
501.00000000	0.36330935
502.00000000	0.40287770
503.00000000	0.43884892
504.00000000	0.47482014
505.00000000	0.51079137
506.00000000	0.55395683
507.00000000	0.60431655
508.00000000	0.64388489
509.00000000	0.69424460
510.00000000	0.73381295
511.00000000	0.78776978
512.00000000	0.82733813
513.00000000	0.85251799
514.00000000	0.89208633
515.00000000	0.92805755
516.00000000	0.94964029
517.00000000	0.96402878
518.00000000	0.98201439
519.00000000	0.99280576
520.00000000	1.00000000
521.00000000	0.99640288
522.00000000	0.99280576
523.00000000	0.98561151
524.00000000	0.97482014
525.00000000	0.95323741
526.00000000	0.93165468
527.00000000	0.91007194
528.00000000	0.88848921
529.00000000	0.86330935
530.00000000	0.83453237
531.00000000	0.80575540
532.00000000	0.77697842
533.00000000	0.75179856
534.00000000	0.71942446
535.00000000	0.69784173
536.00000000	0.66906475
537.00000000	0.64388489
538.00000000	0.61870504
539.00000000	0.59352518
540.00000000	0.56474820
541.00000000	0.54676259
542.00000000	0.51798561
543.00000000	0.49280576
544.00000000	0.47482014
545.00000000	0.44964029
546.00000000	0.42446043
547.00000000	0.40647482
548.00000000	0.38489209
549.00000000	0.36690647
550.00000000	0.34532374
551.00000000	0.32733813
552.00000000	0.30935252
553.00000000	0.29496403
554.00000000	0.27697842
555.00000000	0.26258993
556.00000000	0.24820144
557.00000000	0.23741007
558.00000000	0.22302158
559.00000000	0.21223022
560.00000000	0.19784173
561.00000000	0.18705036
562.00000000	0.17625899
563.00000000	0.16546763
564.00000000	0.15467626
565.00000000	0.14388489
566.00000000	0.13669065
567.00000000	0.12589928
568.00000000	0.11870504
569.00000000	0.11510791
570.00000000	0.10791367
571.00000000	0.09712230
572.00000000	0.08992806
573.00000000	0.08633094
574.00000000	0.08273381
575.00000000	0.07913669
576.00000000	0.07194245
577.00000000	0.06834532
578.00000000	0.06474820
579.00000000	0.06115108
580.00000000	0.05755396
581.00000000	0.05755396
582.00000000	0.05395683
583.00000000	0.05035971
584.00000000	0.04676259
585.00000000	0.04676259
586.00000000	0.04316547
587.00000000	0.03956835
588.00000000	0.03956835
589.00000000	0.03597122
590.00000000	0.03237410
591.00000000	0.03237410
592.00000000	0.02877698
593.00000000	0.02877698
594.00000000	0.02517986
595.00000000	0.02517986
596.00000000	0.02517986
597.00000000	0.02158273
598.00000000	0.02158273
599.00000000	0.02158273
600.00000000	0.01798561
601.00000000	0.01798561
602.00000000	0.01798561
603.00000000	0.01438849
604.00000000	0.01438849
605.00000000	0.01079137
606.00000000	0.01438849
607.00000000	0.01079137
608.00000000	0.01079137
609.00000000	0.01079137
610.00000000	0.01079137
611.00000000	0.01079137
612.00000000	0.01079137
613.00000000	0.00719424
614.00000000	0.00719424
615.00000000	0.00719424
616.00000000	0.00719424
617.00000000	0.00719424
618.00000000	0.00719424
619.00000000	0.00719424
620.00000000	0.00359712
621.00000000	0.00359712
622.00000000	0.00359712
623.00000000	0.00359712
624.00000000	0.00359712
625.00000000	0.00719424
626.00000000	0.00359712
627.00000000	0.00719424
628.00000000	0.00359712
629.00000000	0.00359712
630.00000000	0.00359712
631.00000000	0.00359712
632.00000000	0.00000000
633.00000000	0.00359712
634.00000000	0.00000000
635.00000000	0.00359712
636.00000000	0.00359712
637.00000000	0.00000000
638.00000000	0.00000000
639.00000000	0.00000000
640.00000000	0.00000000
641.00000000	0.00000000
642.00000000	0.00000000
643.00000000	0.00000000
644.00000000	0.00000000
645.00000000	0.00000000
646.00000000	0.00000000
647.00000000	0.00000000
648.00000000	0.00000000
649.00000000	0.00000000
650.00000000	0.00000000
651.00000000	0.00000000
652.00000000	0.00000000
653.00000000	0.00000000
654.00000000	0.00000000
655.00000000	0.00000000
656.00000000	0.00000000
657.00000000	0.00000000
658.00000000	0.00000000
659.00000000	0.00000000
660.00000000	0.00000000
661.00000000	0.00000000
662.00000000	0.00000000
663.00000000	0.00000000
664.00000000	0.00000000
665.00000000	0.00000000
666.00000000	0.00000000
667.00000000	0.00000000
668.00000000	0.00000000
669.00000000	0.00000000
670.00000000	0.00000000
671.00000000	0.00000000
672.00000000	0.00000000
673.00000000	0.00000000
674.00000000	0.00000000
675.00000000	0.00000000
676.00000000	0.00000000
677.00000000	0.00000000
678.00000000	0.00000000
679.00000000	0.00000000
680.00000000	0.00000000
681.00000000	0.00000000
682.00000000	0.00000000
683.00000000	0.00000000
684.00000000	0.00000000
685.00000000	0.00000000
686.00000000	0.00000000
687.00000000	0.00000000
688.00000000	0.00000000
689.00000000	0.00000000
690.00000000	0.00000000
691.00000000	0.00000000
692.00000000	0.00000000
693.00000000	0.00000000
694.00000000	0.00000000
695.00000000	0.00000000
696.00000000	0.00000000
697.00000000	0.00000000
698.00000000	0.00000000
699.00000000	0.00000000
700.00000000	0.00000000
701.00000000	0.00000000
702.00000000	0.00000000
703.00000000	0.00000000
704.00000000	0.00000000
705.00000000	0.00000000
706.00000000	0.00000000
707.00000000	0.00000000
708.00000000	0.00000000
709.00000000	0.00000000
710.00000000	0.00000000
711.00000000	0.00000000
712.00000000	0.00000000
713.00000000	0.00000000
714.00000000	0.00000000
715.00000000	0.00000000
716.00000000	0.00000000
717.00000000	0.00000000
718.00000000	0.00000000
719.00000000	0.00000000
720.00000000	0.00000000
721.00000000	0.00000000
722.00000000	0.00000000
723.00000000	0.00000000
724.00000000	0.00000000
725.00000000	0.00000000
