#Website 1: https://guaix.fis.ucm.es/lamps_spectra
#Website 2: http://carlostapia.es/lamparas/lamps.html
#Latest update: 2018/04/25
#Tester: Carlos Eugenio Tapia Ayuga
#Correct for Electrical Dark: Yes (JAZA2310)
#Correct for Detector Non-linearity: Yes (JAZA2310)
#Correct for Flux: Yes
#Start wavelength (nm): 300
#End wavelength (nm): 900
#Steps (nm):	1
#Locus: D65 sRGB Gamma 1 CIE1931
#XYZ coordinates: 0.1794	0.1954	0.1649
#xyY coordinates: 0.3324	0.3621	0.1954
#sRGB: 51	51	37
#CCT Lindbloom (K):	5506
#CCT McCamy (K):	5506
#CCT Hernández-Andrés (K):	5490
#Melatonin: 0.808
#Chlorophyll a: 0.510
#Chlorophyll b: 0.805
#Beta Carotene: 0.513
#Manufacturer: Unknown
#Luminance manufacturer: Unknown
#Other data: New street lamp in Calle Ronda in Almería
#Begin Processed Spectral Data
W	S
475.00000000	0.16567050
476.00000000	0.13008316
477.00000000	0.13409072
478.00000000	0.15996831
479.00000000	0.16465599
480.00000000	0.17771697
481.00000000	0.17674447
482.00000000	0.18406379
483.00000000	0.18468415
484.00000000	0.16013553
485.00000000	0.14324879
486.00000000	0.13450094
487.00000000	0.11899168
488.00000000	0.13330143
489.00000000	0.16586142
490.00000000	0.16941312
491.00000000	0.15802966
492.00000000	0.16905624
493.00000000	0.14942989
494.00000000	0.13363490
495.00000000	0.13289299
496.00000000	0.14007418
497.00000000	0.13241182
498.00000000	0.12447957
499.00000000	0.12049487
500.00000000	0.12691105
501.00000000	0.14311547
502.00000000	0.13942375
503.00000000	0.16242614
504.00000000	0.16805931
505.00000000	0.19582729
506.00000000	0.17951893
507.00000000	0.15746269
508.00000000	0.14869010
509.00000000	0.12955022
510.00000000	0.12177681
511.00000000	0.14835028
512.00000000	0.17599685
513.00000000	0.18587070
514.00000000	0.16919921
515.00000000	0.14936479
516.00000000	0.15095133
517.00000000	0.15550650
518.00000000	0.14698676
519.00000000	0.14246848
520.00000000	0.14011294
521.00000000	0.11934228
522.00000000	0.11474266
523.00000000	0.12355036
524.00000000	0.12634121
525.00000000	0.11058501
526.00000000	0.12876161
527.00000000	0.16081191
528.00000000	0.16514656
529.00000000	0.15103996
530.00000000	0.14718874
531.00000000	0.15988248
532.00000000	0.15436261
533.00000000	0.15647774
534.00000000	0.20426083
535.00000000	0.57249160
536.00000000	1.00000000
537.00000000	0.82023355
538.00000000	0.63498083
539.00000000	0.51223090
540.00000000	0.38300183
541.00000000	0.27714174
542.00000000	0.22151714
543.00000000	0.21005001
544.00000000	0.14018894
545.00000000	0.13832733
546.00000000	0.25603291
547.00000000	0.27757109
548.00000000	0.17868658
549.00000000	0.14800430
550.00000000	0.12798149
551.00000000	0.12320043
552.00000000	0.10539198
553.00000000	0.11505243
554.00000000	0.11672785
555.00000000	0.13595590
556.00000000	0.12522480
557.00000000	0.11499020
558.00000000	0.10974795
559.00000000	0.10707028
560.00000000	0.10097575
561.00000000	0.11122441
562.00000000	0.11471005
563.00000000	0.11892394
564.00000000	0.16055572
565.00000000	0.18964556
566.00000000	0.16618898
567.00000000	0.14627470
568.00000000	0.14262894
569.00000000	0.13736905
570.00000000	0.13929764
571.00000000	0.15359987
572.00000000	0.15110630
573.00000000	0.14798912
574.00000000	0.14718319
575.00000000	0.16821427
576.00000000	0.17426833
577.00000000	0.18409299
578.00000000	0.16774065
579.00000000	0.16600860
580.00000000	0.16999085
581.00000000	0.15728255
582.00000000	0.14974634
583.00000000	0.13968337
584.00000000	0.13858543
585.00000000	0.13901825
586.00000000	0.14181710
587.00000000	0.14034597
588.00000000	0.13575266
589.00000000	0.13911606
590.00000000	0.14097172
591.00000000	0.13788187
592.00000000	0.13753945
593.00000000	0.13865603
594.00000000	0.15903279
595.00000000	0.17278751
596.00000000	0.16664896
597.00000000	0.19524113
598.00000000	0.22704014
599.00000000	0.24925076
600.00000000	0.22092702
601.00000000	0.23020013
602.00000000	0.23147586
603.00000000	0.20754401
604.00000000	0.18724591
605.00000000	0.17610299
606.00000000	0.17056439
607.00000000	0.17220898
608.00000000	0.18636840
609.00000000	0.24388837
610.00000000	0.22219882
611.00000000	0.20229622
612.00000000	0.20401536
613.00000000	0.19219477
614.00000000	0.18379375
615.00000000	0.17463118
616.00000000	0.18243360
617.00000000	0.22183159
618.00000000	0.19071240
619.00000000	0.16790845
620.00000000	0.16145339
621.00000000	0.14915193
622.00000000	0.14909389
623.00000000	0.14145776
624.00000000	0.13979931
625.00000000	0.14829512
626.00000000	0.22311642
627.00000000	0.21557974
628.00000000	0.16322502
629.00000000	0.14993359
630.00000000	0.13943209
631.00000000	0.12855450
632.00000000	0.12793059
633.00000000	0.13531203
634.00000000	0.14240742
635.00000000	0.13584432
636.00000000	0.13635198
637.00000000	0.12838256
638.00000000	0.13375012
639.00000000	0.14920502
640.00000000	0.13381733
641.00000000	0.12692277
642.00000000	0.14886717
643.00000000	0.16118747
644.00000000	0.15283800
645.00000000	0.13433805
646.00000000	0.12889106
647.00000000	0.12286182
648.00000000	0.12580802
649.00000000	0.13243158
650.00000000	0.11909103
651.00000000	0.11468742
652.00000000	0.10910841
653.00000000	0.10838502
654.00000000	0.11253049
655.00000000	0.12994004
656.00000000	0.15197008
657.00000000	0.14243763
658.00000000	0.17441863
659.00000000	0.16509709
660.00000000	0.13290152
661.00000000	0.12060889
662.00000000	0.11379406
663.00000000	0.10915174
664.00000000	0.12120032
665.00000000	0.12375171
666.00000000	0.15312153
667.00000000	0.20201583
668.00000000	0.16014559
669.00000000	0.13659720
670.00000000	0.12062984
671.00000000	0.11978956
672.00000000	0.12917337
673.00000000	0.13614344
674.00000000	0.12528842
675.00000000	0.13662739
676.00000000	0.14110043
677.00000000	0.15425156
678.00000000	0.13006523
679.00000000	0.12260956
680.00000000	0.11493946
681.00000000	0.11200119
682.00000000	0.11672313
683.00000000	0.14464411
684.00000000	0.16734548
685.00000000	0.18133062
686.00000000	0.19746063
687.00000000	0.14543263
688.00000000	0.12396446
689.00000000	0.12625907
690.00000000	0.11983668
691.00000000	0.10652422
692.00000000	0.10231937
693.00000000	0.10558938
694.00000000	0.09558524
695.00000000	0.10758372
696.00000000	0.12019434
697.00000000	0.13319492
698.00000000	0.13684685
699.00000000	0.13523760
700.00000000	0.14017159
701.00000000	0.12222972
702.00000000	0.11240301
703.00000000	0.09110130
704.00000000	0.08603435
705.00000000	0.08056187
706.00000000	0.07655744
707.00000000	0.07245836
708.00000000	0.06522156
709.00000000	0.06423517
710.00000000	0.05891222
711.00000000	0.06455070
712.00000000	0.06600677
713.00000000	0.06512311
714.00000000	0.06459588
715.00000000	0.05553467
716.00000000	0.05708662
717.00000000	0.05634649
718.00000000	0.05222286
719.00000000	0.05223393
720.00000000	0.06148061
721.00000000	0.05857513
722.00000000	0.07504792
723.00000000	0.07691299
724.00000000	0.06705147
725.00000000	0.06651936
