#LICA Lamps Spectra Database
#Website 1: https://guaix.fis.ucm.es/lamps_spectra
#Website 2: http://carlostapia.es/lamparas/lamps.html
#Latest update: 2017/006/28
#Tester: Carlos Eugenio Tapia Ayuga
#Correct for Electrical Dark: Yes (JAZA2310)
#Correct for Detector Non-linearity: Yes (JAZA2310)
#Correct for Flux: Yes
#Start wavelength (nm): 300
#End wavelength (nm): 900
#Steps (nm):	1
#Locus: D65 sRGB Gamma 1 CIE1931
#XYZ coordinates: 0.4247	0.5979	0.0164
#xyY coordinates: 0.4088	0.5755	0.5979
#sRGB: 115	181	0
#CCT Lindbloom (K):	4349
#CCT McCamy (K):	4309
#CCT Hernández-Andrés (K):	4209
#Melatonin: 0.127
#Chlorophyll a: 0.091
#Chlorophyll b: 0.156
#Beta Carotene: 0.093
#Family and genus: Lampyridae
#Other data: Founded inside Áger (Catalonia - Spain).
#Begin Processed Spectral Data
#W	S
475.000000	0.000000
476.000000	0.002292
477.000000	0.025290
478.000000	0.015088
479.000000	0.000000
480.000000	0.000000
481.000000	0.000000
482.000000	0.000076
483.000000	0.008216
484.000000	0.025164
485.000000	0.009041
486.000000	0.031094
487.000000	0.007114
488.000000	0.000014
489.000000	0.007374
490.000000	0.008444
491.000000	0.018050
492.000000	0.024312
493.000000	0.026403
494.000000	0.014581
495.000000	0.040988
496.000000	0.021559
497.000000	0.029010
498.000000	0.039812
499.000000	0.036056
500.000000	0.048721
501.000000	0.048366
502.000000	0.054373
503.000000	0.062641
504.000000	0.066367
505.000000	0.088597
506.000000	0.106120
507.000000	0.113203
508.000000	0.127365
509.000000	0.146074
510.000000	0.168791
511.000000	0.180952
512.000000	0.204678
513.000000	0.226619
514.000000	0.265814
515.000000	0.280881
516.000000	0.307932
517.000000	0.371304
518.000000	0.394686
519.000000	0.392852
520.000000	0.440780
521.000000	0.476858
522.000000	0.514858
523.000000	0.563890
524.000000	0.599758
525.000000	0.649721
526.000000	0.681624
527.000000	0.727011
528.000000	0.782500
529.000000	0.818054
530.000000	0.854428
531.000000	0.894042
532.000000	0.939683
533.000000	0.996769
534.000000	1.016252
535.000000	1.094364
536.000000	1.088655
537.000000	1.109272
538.000000	1.136661
539.000000	1.202212
540.000000	1.213748
541.000000	1.253154
542.000000	1.252291
543.000000	1.258080
544.000000	1.276682
545.000000	1.306035
546.000000	1.327524
547.000000	1.302164
548.000000	1.333049
549.000000	1.312449
550.000000	1.328173
551.000000	1.332321
552.000000	1.308570
553.000000	1.303052
554.000000	1.324861
555.000000	1.307288
556.000000	1.296976
557.000000	1.302992
558.000000	1.281861
559.000000	1.266221
560.000000	1.260948
561.000000	1.257789
562.000000	1.232550
563.000000	1.222219
564.000000	1.199233
565.000000	1.180956
566.000000	1.176172
567.000000	1.151056
568.000000	1.132773
569.000000	1.145128
570.000000	1.102086
571.000000	1.075389
572.000000	1.052173
573.000000	1.036333
574.000000	1.019238
575.000000	1.006525
576.000000	0.995599
577.000000	0.960677
578.000000	0.960293
579.000000	0.904618
580.000000	0.888489
581.000000	0.860815
582.000000	0.843682
583.000000	0.822485
584.000000	0.802584
585.000000	0.810529
586.000000	0.765345
587.000000	0.753698
588.000000	0.730718
589.000000	0.697496
590.000000	0.708756
591.000000	0.673391
592.000000	0.641893
593.000000	0.656578
594.000000	0.620439
595.000000	0.595260
596.000000	0.578045
597.000000	0.577159
598.000000	0.557943
599.000000	0.558275
600.000000	0.515188
601.000000	0.510876
602.000000	0.482768
603.000000	0.485628
604.000000	0.460148
605.000000	0.441895
606.000000	0.429309
607.000000	0.423675
608.000000	0.398991
609.000000	0.415128
610.000000	0.374112
611.000000	0.381897
612.000000	0.349697
613.000000	0.347758
614.000000	0.344552
615.000000	0.336069
616.000000	0.329875
617.000000	0.312895
618.000000	0.312138
619.000000	0.303413
620.000000	0.268177
621.000000	0.270133
622.000000	0.259556
623.000000	0.267989
624.000000	0.236808
625.000000	0.246120
626.000000	0.238118
627.000000	0.253869
628.000000	0.212458
629.000000	0.216875
630.000000	0.200389
631.000000	0.193919
632.000000	0.183273
633.000000	0.167517
634.000000	0.180760
635.000000	0.174424
636.000000	0.167631
637.000000	0.153326
638.000000	0.154881
639.000000	0.157218
640.000000	0.142620
641.000000	0.149740
642.000000	0.144168
643.000000	0.141470
644.000000	0.125394
645.000000	0.105368
646.000000	0.110810
647.000000	0.100678
648.000000	0.103973
649.000000	0.103165
650.000000	0.102703
651.000000	0.109293
652.000000	0.105217
653.000000	0.118684
654.000000	0.085245
655.000000	0.096340
656.000000	0.071001
657.000000	0.063814
658.000000	0.064554
659.000000	0.086404
660.000000	0.173117
661.000000	0.112711
662.000000	0.081174
663.000000	0.088757
664.000000	0.045600
665.000000	0.057346
666.000000	0.044819
667.000000	0.076267
668.000000	0.039539
669.000000	0.042026
670.000000	0.081756
671.000000	0.061257
672.000000	0.068626
673.000000	0.021069
674.000000	0.071389
675.000000	0.040028
676.000000	0.045712
677.000000	0.078137
678.000000	0.069531
679.000000	0.054770
680.000000	0.041365
681.000000	0.023929
682.000000	0.092811
683.000000	0.072218
684.000000	0.030457
685.000000	0.042767
686.000000	0.062130
687.000000	0.023327
688.000000	0.036559
689.000000	0.009803
690.000000	0.020628
691.000000	0.020928
692.000000	0.057839
693.000000	0.056109
694.000000	0.010494
695.000000	0.007075
696.000000	0.008633
697.000000	0.015441
698.000000	0.017842
699.000000	0.068389
700.000000	0.031410
701.000000	0.008122
702.000000	0.083409
703.000000	0.118093
704.000000	0.001156
705.000000	0.011625
706.000000	0.045446
707.000000	0.013119
708.000000	0.026857
709.000000	0.089800
710.000000	0.048859
711.000000	0.018915
712.000000	0.000069
713.000000	0.069566
714.000000	0.000512
715.000000	0.023362
716.000000	0.046185
717.000000	0.035256
718.000000	0.038411
719.000000	0.065255
720.000000	0.034368
721.000000	0.008289
722.000000	0.047895
723.000000	0.022365
724.000000	0.000000
725.000000	0.025311
