#LICA Lamps Spectra Database
#Website 1: https://guaix.fis.ucm.es/lamps_spectra
#Website 2: http://carlostapia.es/lamparas/lamps.html
#Latest update: 2017/12/14
#Tester: Carlos Eugenio Tapia Ayuga
#Correct for Electrical Dark: Yes (JAZA2310)
#Correct for Detector Non-linearity: Yes (JAZA2310)
#Correct for Flux: Yes
#Start wavelength (nm): 300
#End wavelength (nm): 900
#Steps (nm):	1
#Locus: D65 sRGB Gamma 1 CIE1931
#XYZ coordinates: 0.0955	0.0853	0.0224
#xyY coordinates: 0.4698	0.4199	0.0853
#sRGB: 43	17	3
#CCT Lindbloom (K):	2634
#CCT McCamy (K):	2634
#CCT Hernández-Andrés (K):	2531
#Melatonin: 0.272
#Chlorophyll a: 0.059
#Chlorophyll b: 0.327
#Beta Carotene: 0.058
#Manufacturer: Unknown
#Luminance manufacturer: Unknown
#Other data:
#Begin Processed Spectral Data
W	S
475.000000	0.000875
476.000000	0.009861
477.000000	0.010452
478.000000	0.010315
479.000000	0.021416
480.000000	0.028665
481.000000	0.040758
482.000000	0.070534
483.000000	0.132518
484.000000	0.215048
485.000000	0.319248
486.000000	0.444543
487.000000	0.535730
488.000000	0.542386
489.000000	0.489972
490.000000	0.418384
491.000000	0.383080
492.000000	0.352680
493.000000	0.313153
494.000000	0.263564
495.000000	0.232180
496.000000	0.206180
497.000000	0.180972
498.000000	0.159900
499.000000	0.136621
500.000000	0.112530
501.000000	0.090366
502.000000	0.070902
503.000000	0.053076
504.000000	0.045644
505.000000	0.033063
506.000000	0.024750
507.000000	0.023337
508.000000	0.016411
509.000000	0.016308
510.000000	0.017188
511.000000	0.014649
512.000000	0.011456
513.000000	0.012321
514.000000	0.015082
515.000000	0.007156
516.000000	0.006049
517.000000	0.007906
518.000000	0.009176
519.000000	0.008383
520.000000	0.004825
521.000000	0.007294
522.000000	0.005048
523.000000	0.008066
524.000000	0.004440
525.000000	0.005829
526.000000	0.003763
527.000000	0.008624
528.000000	0.009800
529.000000	0.012276
530.000000	0.014048
531.000000	0.018433
532.000000	0.025656
533.000000	0.072471
534.000000	0.102300
535.000000	0.090504
536.000000	0.109991
537.000000	0.183002
538.000000	0.299781
539.000000	0.433888
540.000000	0.721167
541.000000	1.468794
542.000000	2.343975
543.000000	2.273965
544.000000	2.110628
545.000000	2.165325
546.000000	4.275339
547.000000	3.819101
548.000000	2.450762
549.000000	1.684771
550.000000	1.135632
551.000000	0.838651
552.000000	0.611367
553.000000	0.462601
554.000000	0.349044
555.000000	0.246629
556.000000	0.183442
557.000000	0.141984
558.000000	0.108168
559.000000	0.086742
560.000000	0.070831
561.000000	0.061247
562.000000	0.053595
563.000000	0.052419
564.000000	0.049934
565.000000	0.045797
566.000000	0.036153
567.000000	0.045199
568.000000	0.038639
569.000000	0.042718
570.000000	0.032261
571.000000	0.024893
572.000000	0.020460
573.000000	0.019888
574.000000	0.025422
575.000000	0.032592
576.000000	0.093090
577.000000	0.514022
578.000000	0.417035
579.000000	0.642339
580.000000	0.649077
581.000000	0.523162
582.000000	0.474018
583.000000	0.518539
584.000000	0.535183
585.000000	0.530974
586.000000	0.511594
587.000000	0.744252
588.000000	0.840691
589.000000	0.568313
590.000000	0.438997
591.000000	0.402815
592.000000	0.471766
593.000000	0.719601
594.000000	0.712492
595.000000	0.491519
596.000000	0.386596
597.000000	0.325111
598.000000	0.319044
599.000000	0.454280
600.000000	0.527466
601.000000	0.445369
602.000000	0.334217
603.000000	0.245383
604.000000	0.229215
605.000000	0.236579
606.000000	0.263479
607.000000	0.329684
608.000000	0.451595
609.000000	0.747882
610.000000	1.705676
611.000000	5.298483
612.000000	6.943499
613.000000	4.821700
614.000000	3.743413
615.000000	2.783138
616.000000	1.854670
617.000000	1.218006
618.000000	0.839445
619.000000	0.605301
620.000000	0.500515
621.000000	0.502355
622.000000	0.493043
623.000000	0.523966
624.000000	0.576623
625.000000	0.595376
626.000000	0.615401
627.000000	0.634288
628.000000	0.597573
629.000000	0.588906
630.000000	0.701255
631.000000	1.006974
632.000000	0.859160
633.000000	0.518736
634.000000	0.324997
635.000000	0.208888
636.000000	0.149051
637.000000	0.127531
638.000000	0.107223
639.000000	0.092997
640.000000	0.090088
641.000000	0.081566
642.000000	0.081689
643.000000	0.081227
644.000000	0.090517
645.000000	0.096685
646.000000	0.084648
647.000000	0.080626
648.000000	0.090332
649.000000	0.099623
650.000000	0.182268
651.000000	0.279557
652.000000	0.214272
653.000000	0.196761
654.000000	0.162142
655.000000	0.106380
656.000000	0.102782
657.000000	0.081900
658.000000	0.088938
659.000000	0.082712
660.000000	0.073323
661.000000	0.075594
662.000000	0.117733
663.000000	0.176832
664.000000	0.127949
665.000000	0.096921
666.000000	0.073682
667.000000	0.063223
668.000000	0.046173
669.000000	0.054443
670.000000	0.031662
671.000000	0.042632
672.000000	0.035978
673.000000	0.045037
674.000000	0.037099
675.000000	0.025863
676.000000	0.024609
677.000000	0.034908
678.000000	0.032947
679.000000	0.047711
680.000000	0.042849
681.000000	0.062304
682.000000	0.041776
683.000000	0.032624
684.000000	0.034221
685.000000	0.050421
686.000000	0.062622
687.000000	0.119317
688.000000	0.167767
689.000000	0.138836
690.000000	0.096794
691.000000	0.057933
692.000000	0.039825
693.000000	0.064103
694.000000	0.124002
695.000000	0.076196
696.000000	0.045307
697.000000	0.034066
698.000000	0.020621
699.000000	0.013155
700.000000	0.013031
701.000000	0.013388
702.000000	0.009647
703.000000	0.022593
704.000000	0.053420
705.000000	0.106921
706.000000	0.204522
707.000000	0.391914
708.000000	0.427707
709.000000	0.547807
710.000000	0.435611
711.000000	0.284560
712.000000	0.412854
713.000000	0.393668
714.000000	0.220968
715.000000	0.110770
716.000000	0.056385
717.000000	0.015360
718.000000	0.005612
719.000000	0.000000
720.000000	0.000000
721.000000	0.000000
722.000000	0.000768
723.000000	0.004391
724.000000	0.000000
725.000000	0.012480
