#LICA Lamps Spectra Database
#Website 1: https://guaix.fis.ucm.es/lamps_spectra
#Website 2: http://carlostapia.es/lamparas/lamps.html
#Latest update: 2017/12/15
#Tester: Carlos Eugenio Tapia Ayuga
#Correct for Electrical Dark: Yes (JAZA2310)
#Correct for Detector Non-linearity: Yes (JAZA2310)
#Correct for Flux: Yes
#Start wavelength (nm): 300
#End wavelength (nm): 900
#Steps (nm):	1
#Locus: D65 sRGB Gamma 1 CIE1931
#XYZ coordinates: 0.1610	0.1161	0.0161
#xyY coordinates: 0.5491	0.3961	0.1161
#sRGB: 85	16	1
#CCT Lindbloom (K):	1732
#CCT McCamy (K):	1739
#CCT Hernández-Andrés (K):	1270
#Melatonin: 0.128
#Chlorophyll a: 0.233
#Chlorophyll b: 0.373
#Beta Carotene: 0.234
#Manufacturer: Unknown
#Luminance manufacturer: Unknown
#Other data:
#Begin Processed Spectral Data
W	S
475.000000	0.074627
476.000000	0.075335
477.000000	0.045233
478.000000	0.026368
479.000000	0.014774
480.000000	0.012194
481.000000	0.007397
482.000000	0.008846
483.000000	0.011079
484.000000	0.023617
485.000000	0.008225
486.000000	0.019189
487.000000	0.011235
488.000000	0.016493
489.000000	0.018399
490.000000	0.023914
491.000000	0.031670
492.000000	0.049598
493.000000	0.037918
494.000000	0.037580
495.000000	0.060346
496.000000	0.098739
497.000000	0.228688
498.000000	0.570398
499.000000	0.715022
500.000000	0.451314
501.000000	0.217495
502.000000	0.113276
503.000000	0.061748
504.000000	0.044705
505.000000	0.034224
506.000000	0.029256
507.000000	0.025186
508.000000	0.022686
509.000000	0.028522
510.000000	0.018495
511.000000	0.015326
512.000000	0.018700
513.000000	0.017437
514.000000	0.039575
515.000000	0.140383
516.000000	0.201561
517.000000	0.101382
518.000000	0.047112
519.000000	0.022492
520.000000	0.020567
521.000000	0.017194
522.000000	0.014777
523.000000	0.017196
524.000000	0.016585
525.000000	0.014740
526.000000	0.016595
527.000000	0.013443
528.000000	0.019994
529.000000	0.018293
530.000000	0.017738
531.000000	0.014761
532.000000	0.019189
533.000000	0.030276
534.000000	0.026879
535.000000	0.026916
536.000000	0.021919
537.000000	0.018969
538.000000	0.021296
539.000000	0.030300
540.000000	0.023389
541.000000	0.026029
542.000000	0.026114
543.000000	0.027289
544.000000	0.024843
545.000000	0.035186
546.000000	0.129826
547.000000	0.135699
548.000000	0.076525
549.000000	0.057546
550.000000	0.085251
551.000000	0.095059
552.000000	0.094774
553.000000	0.105231
554.000000	0.120997
555.000000	0.109359
556.000000	0.108723
557.000000	0.107983
558.000000	0.119470
559.000000	0.132156
560.000000	0.144779
561.000000	0.159063
562.000000	0.160317
563.000000	0.183775
564.000000	0.206286
565.000000	0.261498
566.000000	0.401796
567.000000	0.747322
568.000000	1.555863
569.000000	3.055473
570.000000	2.636649
571.000000	1.379810
572.000000	0.756488
573.000000	0.492474
574.000000	0.418012
575.000000	0.399535
576.000000	0.409685
577.000000	0.445607
578.000000	0.496525
579.000000	0.560173
580.000000	0.640758
581.000000	0.719603
582.000000	0.882986
583.000000	1.054880
584.000000	1.294263
585.000000	1.586821
586.000000	1.903369
587.000000	1.938654
588.000000	1.263262
589.000000	0.487370
590.000000	0.224968
591.000000	0.246557
592.000000	0.626270
593.000000	1.207659
594.000000	1.680172
595.000000	1.943513
596.000000	2.063203
597.000000	2.089038
598.000000	2.021228
599.000000	1.955891
600.000000	1.889991
601.000000	1.807313
602.000000	1.675069
603.000000	1.612534
604.000000	1.516524
605.000000	1.439839
606.000000	1.353220
607.000000	1.289646
608.000000	1.235427
609.000000	1.135940
610.000000	1.072814
611.000000	1.044804
612.000000	0.955421
613.000000	0.968842
614.000000	0.908837
615.000000	1.024520
616.000000	1.450000
617.000000	1.366350
618.000000	0.956745
619.000000	0.784290
620.000000	0.718730
621.000000	0.667410
622.000000	0.647672
623.000000	0.640861
624.000000	0.605512
625.000000	0.588218
626.000000	0.562128
627.000000	0.546079
628.000000	0.529675
629.000000	0.522327
630.000000	0.505060
631.000000	0.478734
632.000000	0.477146
633.000000	0.468933
634.000000	0.456859
635.000000	0.447496
636.000000	0.427616
637.000000	0.422814
638.000000	0.422196
639.000000	0.399439
640.000000	0.372745
641.000000	0.369882
642.000000	0.375890
643.000000	0.374821
644.000000	0.360645
645.000000	0.359845
646.000000	0.352412
647.000000	0.344337
648.000000	0.339186
649.000000	0.333392
650.000000	0.319773
651.000000	0.308322
652.000000	0.309670
653.000000	0.305858
654.000000	0.305593
655.000000	0.321311
656.000000	0.310076
657.000000	0.311804
658.000000	0.287085
659.000000	0.290160
660.000000	0.341005
661.000000	0.280534
662.000000	0.258740
663.000000	0.258548
664.000000	0.247937
665.000000	0.248835
666.000000	0.256401
667.000000	0.273349
668.000000	0.292596
669.000000	0.289329
670.000000	0.319821
671.000000	0.327034
672.000000	0.339292
673.000000	0.313759
674.000000	0.333066
675.000000	0.306971
676.000000	0.300911
677.000000	0.305752
678.000000	0.264903
679.000000	0.248564
680.000000	0.216375
681.000000	0.204939
682.000000	0.218558
683.000000	0.203186
684.000000	0.160375
685.000000	0.166350
686.000000	0.141321
687.000000	0.128271
688.000000	0.113079
689.000000	0.095780
690.000000	0.105041
691.000000	0.115819
692.000000	0.123147
693.000000	0.120575
694.000000	0.103074
695.000000	0.086525
696.000000	0.088548
697.000000	0.103605
698.000000	0.093231
699.000000	0.112922
700.000000	0.108079
701.000000	0.093686
702.000000	0.105824
703.000000	0.132002
704.000000	0.083422
705.000000	0.090810
706.000000	0.111274
707.000000	0.080735
708.000000	0.095168
709.000000	0.112564
710.000000	0.096604
711.000000	0.074828
712.000000	0.058064
713.000000	0.075041
714.000000	0.072600
715.000000	0.066190
716.000000	0.091343
717.000000	0.099860
718.000000	0.104526
719.000000	0.101949
720.000000	0.080723
721.000000	0.052890
722.000000	0.082742
723.000000	0.083215
724.000000	0.057359
725.000000	0.046966
