#LICA Lamps Spectra Database
#Website 1: https://guaix.fis.ucm.es/lamps_spectra
#Website 2: http://carlostapia.es/lamparas/lamps.html
#Latest update: 2017/02/07
#Tester: Carlos Eugenio Tapia Ayuga
#Correct for Electrical Dark: Yes (JAZA2310)
#Correct for Detector Non-linearity: Yes (JAZA2310)
#Correct for Flux: Yes
#Start wavelength (nm): 300
#End wavelength (nm): 900
#Steps (nm):	1
#Locus: D65 sRGB Gamma 1 CIE1931
#XYZ coordinates: 0.1625	0.1284	0.0182
#xyY coordinates: 0.5257	0.4155	0.1284
#sRGB: 82	21	1
#CCT Lindbloom (K):	2021
#CCT McCamy (K):	2004
#CCT Hernández-Andrés (K):	1730
#Melatonin: 0.180
#Chlorophyll a: 6.214
#Chlorophyll b: 0.552
#Beta Carotene: 6.186
#Manufacturer: Amberline
#Luminance manufacturer: 140 lm
#Other data: Amberline carbon filament lamp. Squirrel Cage filament design.
#Begin Processed Spectral Data
W	S
475.000000	0.046697
476.000000	0.048029
477.000000	0.049343
478.000000	0.050559
479.000000	0.051072
480.000000	0.052255
481.000000	0.053248
482.000000	0.054172
483.000000	0.055493
484.000000	0.056422
485.000000	0.058038
486.000000	0.059117
487.000000	0.060383
488.000000	0.061706
489.000000	0.062549
490.000000	0.063484
491.000000	0.064550
492.000000	0.065773
493.000000	0.067549
494.000000	0.068047
495.000000	0.069999
496.000000	0.070931
497.000000	0.073029
498.000000	0.075034
499.000000	0.075633
500.000000	0.077207
501.000000	0.078557
502.000000	0.080238
503.000000	0.082195
504.000000	0.083175
505.000000	0.084716
506.000000	0.086454
507.000000	0.088157
508.000000	0.089821
509.000000	0.091711
510.000000	0.093231
511.000000	0.095046
512.000000	0.097569
513.000000	0.097912
514.000000	0.101168
515.000000	0.103316
516.000000	0.104761
517.000000	0.106460
518.000000	0.108024
519.000000	0.110246
520.000000	0.111544
521.000000	0.113154
522.000000	0.114597
523.000000	0.117039
524.000000	0.120085
525.000000	0.121679
526.000000	0.125177
527.000000	0.125678
528.000000	0.128789
529.000000	0.130975
530.000000	0.132376
531.000000	0.135015
532.000000	0.135997
533.000000	0.137935
534.000000	0.139721
535.000000	0.143341
536.000000	0.146008
537.000000	0.147028
538.000000	0.149785
539.000000	0.152732
540.000000	0.153856
541.000000	0.158353
542.000000	0.160138
543.000000	0.163738
544.000000	0.165173
545.000000	0.167338
546.000000	0.169398
547.000000	0.172242
548.000000	0.176450
549.000000	0.177229
550.000000	0.181383
551.000000	0.185001
552.000000	0.186442
553.000000	0.190207
554.000000	0.194275
555.000000	0.197283
556.000000	0.200888
557.000000	0.204345
558.000000	0.208754
559.000000	0.210168
560.000000	0.214322
561.000000	0.216317
562.000000	0.219386
563.000000	0.220934
564.000000	0.223168
565.000000	0.227094
566.000000	0.230785
567.000000	0.234385
568.000000	0.237496
569.000000	0.239519
570.000000	0.241050
571.000000	0.243765
572.000000	0.248332
573.000000	0.251009
574.000000	0.253683
575.000000	0.255966
576.000000	0.259000
577.000000	0.262457
578.000000	0.266452
579.000000	0.269205
580.000000	0.271836
581.000000	0.274336
582.000000	0.279122
583.000000	0.285079
584.000000	0.288034
585.000000	0.294287
586.000000	0.296479
587.000000	0.299327
588.000000	0.302962
589.000000	0.305970
590.000000	0.310150
591.000000	0.314596
592.000000	0.316464
593.000000	0.320847
594.000000	0.325156
595.000000	0.328642
596.000000	0.331862
597.000000	0.335983
598.000000	0.340041
599.000000	0.344197
600.000000	0.347913
601.000000	0.352459
602.000000	0.357714
603.000000	0.362405
604.000000	0.364593
605.000000	0.365249
606.000000	0.370429
607.000000	0.371460
608.000000	0.376019
609.000000	0.379454
610.000000	0.382107
611.000000	0.387306
612.000000	0.389253
613.000000	0.394266
614.000000	0.401232
615.000000	0.406492
616.000000	0.411880
617.000000	0.419177
618.000000	0.425506
619.000000	0.431144
620.000000	0.435294
621.000000	0.436495
622.000000	0.441530
623.000000	0.446947
624.000000	0.448098
625.000000	0.452330
626.000000	0.457703
627.000000	0.462174
628.000000	0.466805
629.000000	0.470912
630.000000	0.475999
631.000000	0.479300
632.000000	0.480079
633.000000	0.486463
634.000000	0.492223
635.000000	0.496310
636.000000	0.500316
637.000000	0.505667
638.000000	0.507979
639.000000	0.512573
640.000000	0.516186
641.000000	0.522667
642.000000	0.526508
643.000000	0.532027
644.000000	0.535980
645.000000	0.541029
646.000000	0.547020
647.000000	0.550767
648.000000	0.557553
649.000000	0.563078
650.000000	0.565342
651.000000	0.570633
652.000000	0.574259
653.000000	0.573414
654.000000	0.580538
655.000000	0.584279
656.000000	0.590317
657.000000	0.595769
658.000000	0.597973
659.000000	0.606715
660.000000	0.609285
661.000000	0.614230
662.000000	0.618954
663.000000	0.625118
664.000000	0.625562
665.000000	0.632670
666.000000	0.635434
667.000000	0.643389
668.000000	0.643476
669.000000	0.655662
670.000000	0.660552
671.000000	0.666631
672.000000	0.668547
673.000000	0.677023
674.000000	0.679447
675.000000	0.685054
676.000000	0.691607
677.000000	0.695362
678.000000	0.698511
679.000000	0.706659
680.000000	0.710608
681.000000	0.717241
682.000000	0.719139
683.000000	0.726924
684.000000	0.729931
685.000000	0.735254
686.000000	0.739782
687.000000	0.745781
688.000000	0.744747
689.000000	0.748934
690.000000	0.756502
691.000000	0.764376
692.000000	0.773016
693.000000	0.779094
694.000000	0.785638
695.000000	0.787844
696.000000	0.792379
697.000000	0.797143
698.000000	0.802084
699.000000	0.812049
700.000000	0.822557
701.000000	0.829280
702.000000	0.836024
703.000000	0.843883
704.000000	0.845580
705.000000	0.850326
706.000000	0.850903
707.000000	0.851721
708.000000	0.865076
709.000000	0.866877
710.000000	0.879958
711.000000	0.887080
712.000000	0.890242
713.000000	0.892315
714.000000	0.899032
715.000000	0.904187
716.000000	0.908994
717.000000	0.914595
718.000000	0.922461
719.000000	0.929729
720.000000	0.937989
721.000000	0.947613
722.000000	0.953981
723.000000	0.959282
724.000000	0.960313
725.000000	0.968629
