#LICA Lamps Spectra Database
#Website 1: https://guaix.fis.ucm.es/lamps_spectra
#Website 2: http://carlostapia.es/lamparas/lamps.html
#Latest update: 2017/12/17
#Tester: Carlos Eugenio Tapia Ayuga
#Correct for Electrical Dark: Yes (JAZA2310)
#Correct for Detector Non-linearity: Yes (JAZA2310)
#Correct for Flux: Yes
#Start wavelength (nm): 300
#End wavelength (nm): 900
#Steps (nm):	1
#Locus: D65 sRGB Gamma 1 CIE1931
#XYZ coordinates: 0.7443	0.6797	0.2128
#xyY coordinates: 0.4547	0.4153	0.6797
#sRGB: 255	114	26
#CCT Lindbloom (K):	2810
#CCT McCamy (K):	2811
#CCT Hernández-Andrés (K):	2733
#Melatonin: 0.289
#Chlorophyll a: 0.161
#Chlorophyll b: 0.499
#Beta Carotene: 0.162
#Manufacturer: VEL Light
#Luminance manufacturer: 
#Other data: 2700K
#Begin Processed Spectral Data
W	S
475.000000	0.220542
476.000000	0.216220
477.000000	0.211941
478.000000	0.205313
479.000000	0.202230
480.000000	0.195661
481.000000	0.192462
482.000000	0.189283
483.000000	0.187714
484.000000	0.186903
485.000000	0.187674
486.000000	0.187467
487.000000	0.186640
488.000000	0.187515
489.000000	0.187687
490.000000	0.191007
491.000000	0.193668
492.000000	0.194163
493.000000	0.198076
494.000000	0.199754
495.000000	0.205267
496.000000	0.210069
497.000000	0.214232
498.000000	0.213935
499.000000	0.219580
500.000000	0.223299
501.000000	0.228267
502.000000	0.232303
503.000000	0.238841
504.000000	0.244965
505.000000	0.247695
506.000000	0.251198
507.000000	0.259749
508.000000	0.261755
509.000000	0.268524
510.000000	0.271254
511.000000	0.280065
512.000000	0.281881
513.000000	0.284367
514.000000	0.294673
515.000000	0.298305
516.000000	0.302340
517.000000	0.304037
518.000000	0.307755
519.000000	0.309872
520.000000	0.313357
521.000000	0.314957
522.000000	0.319245
523.000000	0.324940
524.000000	0.328637
525.000000	0.331104
526.000000	0.336457
527.000000	0.339313
528.000000	0.343907
529.000000	0.349343
530.000000	0.350518
531.000000	0.352879
532.000000	0.354648
533.000000	0.357094
534.000000	0.359903
535.000000	0.362616
536.000000	0.367278
537.000000	0.370757
538.000000	0.373199
539.000000	0.379207
540.000000	0.382046
541.000000	0.387308
542.000000	0.391896
543.000000	0.393532
544.000000	0.400530
545.000000	0.406485
546.000000	0.407481
547.000000	0.412560
548.000000	0.418856
549.000000	0.421328
550.000000	0.429319
551.000000	0.431777
552.000000	0.439267
553.000000	0.445524
554.000000	0.453621
555.000000	0.459705
556.000000	0.467972
557.000000	0.476757
558.000000	0.484963
559.000000	0.491308
560.000000	0.500580
561.000000	0.504657
562.000000	0.512466
563.000000	0.516482
564.000000	0.522756
565.000000	0.532326
566.000000	0.537789
567.000000	0.548008
568.000000	0.555998
569.000000	0.565139
570.000000	0.572475
571.000000	0.579741
572.000000	0.584195
573.000000	0.597501
574.000000	0.605357
575.000000	0.613804
576.000000	0.619002
577.000000	0.627774
578.000000	0.635817
579.000000	0.644013
580.000000	0.655084
581.000000	0.659846
582.000000	0.666789
583.000000	0.678220
584.000000	0.689221
585.000000	0.701529
586.000000	0.706076
587.000000	0.712866
588.000000	0.717320
589.000000	0.723864
590.000000	0.729430
591.000000	0.734710
592.000000	0.737613
593.000000	0.743867
594.000000	0.749134
595.000000	0.754151
596.000000	0.758226
597.000000	0.762438
598.000000	0.767626
599.000000	0.766191
600.000000	0.771502
601.000000	0.774706
602.000000	0.779659
603.000000	0.780312
604.000000	0.780482
605.000000	0.774612
606.000000	0.774512
607.000000	0.770236
608.000000	0.768468
609.000000	0.763514
610.000000	0.762732
611.000000	0.759130
612.000000	0.750013
613.000000	0.752766
614.000000	0.751755
615.000000	0.752571
616.000000	0.750986
617.000000	0.745713
618.000000	0.749149
619.000000	0.745424
620.000000	0.738921
621.000000	0.726645
622.000000	0.715851
623.000000	0.711398
624.000000	0.704334
625.000000	0.697418
626.000000	0.685708
627.000000	0.680483
628.000000	0.675138
629.000000	0.662391
630.000000	0.653038
631.000000	0.639876
632.000000	0.628008
633.000000	0.622941
634.000000	0.617797
635.000000	0.605120
636.000000	0.597656
637.000000	0.586081
638.000000	0.573683
639.000000	0.563594
640.000000	0.551136
641.000000	0.545745
642.000000	0.533080
643.000000	0.520609
644.000000	0.512888
645.000000	0.505479
646.000000	0.493725
647.000000	0.484769
648.000000	0.477216
649.000000	0.467986
650.000000	0.454269
651.000000	0.445036
652.000000	0.436156
653.000000	0.423514
654.000000	0.412164
655.000000	0.400303
656.000000	0.396475
657.000000	0.384074
658.000000	0.372177
659.000000	0.367406
660.000000	0.354577
661.000000	0.347431
662.000000	0.343574
663.000000	0.329116
664.000000	0.321562
665.000000	0.316926
666.000000	0.304786
667.000000	0.299919
668.000000	0.289511
669.000000	0.283400
670.000000	0.279043
671.000000	0.270422
672.000000	0.260538
673.000000	0.257912
674.000000	0.245427
675.000000	0.237736
676.000000	0.232393
677.000000	0.229559
678.000000	0.218898
679.000000	0.216441
680.000000	0.208076
681.000000	0.202236
682.000000	0.197813
683.000000	0.191039
684.000000	0.187377
685.000000	0.179441
686.000000	0.175059
687.000000	0.168389
688.000000	0.164625
689.000000	0.158686
690.000000	0.156572
691.000000	0.144867
692.000000	0.150119
693.000000	0.139884
694.000000	0.138058
695.000000	0.133786
696.000000	0.129587
697.000000	0.127049
698.000000	0.119276
699.000000	0.117561
700.000000	0.113263
701.000000	0.113836
702.000000	0.108393
703.000000	0.104057
704.000000	0.104414
705.000000	0.097676
706.000000	0.093901
707.000000	0.097203
708.000000	0.090479
709.000000	0.082926
710.000000	0.082825
711.000000	0.081937
712.000000	0.079305
713.000000	0.076402
714.000000	0.071500
715.000000	0.070979
716.000000	0.069156
717.000000	0.066367
718.000000	0.064838
719.000000	0.065074
720.000000	0.060831
721.000000	0.064444
722.000000	0.058259
723.000000	0.055739
724.000000	0.055189
725.000000	0.052507
