#LICA Lamps Spectra Database
#Website 1: https://guaix.fis.ucm.es/lamps_spectra
#Website 2: http://carlostapia.es/lamparas/lamps.html
#Latest update: 2017/12/15
#Tester: Carlos Eugenio Tapia Ayuga
#Correct for Electrical Dark: Yes (JAZA2310)
#Correct for Detector Non-linearity: Yes (JAZA2310)
#Correct for Flux: Yes
#Start wavelength (nm): 300
#End wavelength (nm): 900
#Steps (nm):	1
#Locus: D65 sRGB Gamma 1 CIE1931
#XYZ coordinates: 0.7866	0.7148	0.3125
#xyY coordinates: 0.4337	0.3941	0.7148
#sRGB: 255	116	45
#CCT Lindbloom (K):	3107
#CCT McCamy (K):	2977
#CCT Hernández-Andrés (K):	2932
#Melatonin: 0.341
#Chlorophyll a: 0.174
#Chlorophyll b: 0.617
#Beta Carotene: 0.175
#Manufacturer: Philips
#Luminance manufacturer: Unknown
#Other data: Madrid streetlamp tested in laboratory
#Begin Processed Spectral Data
W	S
475.000000	0.076643
476.000000	0.077635
477.000000	0.071566
478.000000	0.070019
479.000000	0.067228
480.000000	0.067312
481.000000	0.066100
482.000000	0.068839
483.000000	0.066719
484.000000	0.068912
485.000000	0.069474
486.000000	0.070818
487.000000	0.071721
488.000000	0.075686
489.000000	0.076132
490.000000	0.079907
491.000000	0.083800
492.000000	0.088889
493.000000	0.091837
494.000000	0.096439
495.000000	0.103876
496.000000	0.110303
497.000000	0.116772
498.000000	0.123968
499.000000	0.132756
500.000000	0.141260
501.000000	0.148013
502.000000	0.153980
503.000000	0.165150
504.000000	0.171211
505.000000	0.183698
506.000000	0.188445
507.000000	0.199329
508.000000	0.205414
509.000000	0.216950
510.000000	0.226401
511.000000	0.237321
512.000000	0.246048
513.000000	0.252258
514.000000	0.262435
515.000000	0.273961
516.000000	0.280618
517.000000	0.287486
518.000000	0.294169
519.000000	0.305358
520.000000	0.309805
521.000000	0.318618
522.000000	0.326648
523.000000	0.334897
524.000000	0.344990
525.000000	0.353198
526.000000	0.356397
527.000000	0.368813
528.000000	0.373143
529.000000	0.380546
530.000000	0.386219
531.000000	0.391153
532.000000	0.396833
533.000000	0.400452
534.000000	0.405580
535.000000	0.415644
536.000000	0.421162
537.000000	0.429406
538.000000	0.433590
539.000000	0.442566
540.000000	0.444712
541.000000	0.455937
542.000000	0.459629
543.000000	0.470681
544.000000	0.471507
545.000000	0.478758
546.000000	0.486983
547.000000	0.492743
548.000000	0.500208
549.000000	0.505910
550.000000	0.511527
551.000000	0.519166
552.000000	0.526843
553.000000	0.539596
554.000000	0.547994
555.000000	0.551643
556.000000	0.563246
557.000000	0.573386
558.000000	0.587164
559.000000	0.586087
560.000000	0.599876
561.000000	0.605720
562.000000	0.613709
563.000000	0.623524
564.000000	0.630355
565.000000	0.639604
566.000000	0.648931
567.000000	0.658304
568.000000	0.664625
569.000000	0.669783
570.000000	0.672068
571.000000	0.682023
572.000000	0.691641
573.000000	0.697592
574.000000	0.701452
575.000000	0.706030
576.000000	0.713164
577.000000	0.723025
578.000000	0.724711
579.000000	0.728921
580.000000	0.736882
581.000000	0.735546
582.000000	0.746159
583.000000	0.751466
584.000000	0.759143
585.000000	0.766721
586.000000	0.774689
587.000000	0.773261
588.000000	0.778769
589.000000	0.774900
590.000000	0.783054
591.000000	0.781289
592.000000	0.779845
593.000000	0.787160
594.000000	0.788224
595.000000	0.785098
596.000000	0.787019
597.000000	0.782905
598.000000	0.789226
599.000000	0.789146
600.000000	0.792857
601.000000	0.792659
602.000000	0.785898
603.000000	0.786209
604.000000	0.785829
605.000000	0.767388
606.000000	0.760556
607.000000	0.754708
608.000000	0.752487
609.000000	0.747732
610.000000	0.741753
611.000000	0.738684
612.000000	0.727182
613.000000	0.727436
614.000000	0.721821
615.000000	0.729225
616.000000	0.719072
617.000000	0.713990
618.000000	0.712291
619.000000	0.709768
620.000000	0.705318
621.000000	0.691776
622.000000	0.676413
623.000000	0.677782
624.000000	0.663452
625.000000	0.658192
626.000000	0.645913
627.000000	0.638996
628.000000	0.633735
629.000000	0.615809
630.000000	0.615146
631.000000	0.600887
632.000000	0.585179
633.000000	0.585557
634.000000	0.572498
635.000000	0.561531
636.000000	0.553391
637.000000	0.532665
638.000000	0.530616
639.000000	0.516229
640.000000	0.517278
641.000000	0.495976
642.000000	0.491522
643.000000	0.488169
644.000000	0.477302
645.000000	0.464284
646.000000	0.455733
647.000000	0.450209
648.000000	0.438524
649.000000	0.434568
650.000000	0.420685
651.000000	0.412461
652.000000	0.401576
653.000000	0.392386
654.000000	0.388386
655.000000	0.378090
656.000000	0.366400
657.000000	0.365668
658.000000	0.352310
659.000000	0.349049
660.000000	0.338525
661.000000	0.329420
662.000000	0.322514
663.000000	0.310092
664.000000	0.307354
665.000000	0.303328
666.000000	0.291319
667.000000	0.287572
668.000000	0.277842
669.000000	0.273793
670.000000	0.266056
671.000000	0.260921
672.000000	0.255230
673.000000	0.251444
674.000000	0.242312
675.000000	0.237146
676.000000	0.228383
677.000000	0.229369
678.000000	0.224265
679.000000	0.214087
680.000000	0.211244
681.000000	0.199964
682.000000	0.199438
683.000000	0.195634
684.000000	0.188889
685.000000	0.181611
686.000000	0.179237
687.000000	0.175086
688.000000	0.168260
689.000000	0.162879
690.000000	0.155516
691.000000	0.153584
692.000000	0.154181
693.000000	0.149291
694.000000	0.144538
695.000000	0.139769
696.000000	0.137125
697.000000	0.132566
698.000000	0.129736
699.000000	0.125544
700.000000	0.122715
701.000000	0.123573
702.000000	0.119237
703.000000	0.115366
704.000000	0.110881
705.000000	0.108139
706.000000	0.101890
707.000000	0.098386
708.000000	0.099209
709.000000	0.097574
710.000000	0.093418
711.000000	0.091496
712.000000	0.091047
713.000000	0.085972
714.000000	0.082184
715.000000	0.078077
716.000000	0.077304
717.000000	0.079091
718.000000	0.076581
719.000000	0.077045
720.000000	0.069829
721.000000	0.064012
722.000000	0.066479
723.000000	0.070121
724.000000	0.063129
725.000000	0.058995
