#LICA Lamps Spectra Database
#Website 1: https://guaix.fis.ucm.es/lamps_spectra
#Website 2: http://carlostapia.es/lamparas/lamps.html
#Latest update: 2017/12/15
#Tester: Carlos Eugenio Tapia Ayuga
#Correct for Electrical Dark: Yes (JAZA2310)
#Correct for Detector Non-linearity: Yes (JAZA2310)
#Correct for Flux: Yes
#Start wavelength (nm): 300
#End wavelength (nm): 900
#Steps (nm):	1
#Locus: D65 sRGB Gamma 1 CIE1931
#XYZ coordinates: 0.3118	0.3191	0.4117
#xyY coordinates: 0.2991	0.3060	0.3191
#sRGB: 80	80	99
#CCT Lindbloom (K):	7676
#CCT McCamy (K):	7664
#CCT Hernández-Andrés (K):	7673
#Melatonin: 0.894
#Chlorophyll a: 0.068
#Chlorophyll b: 1.116
#Beta Carotene: 0.070
#Manufacturer: Unknown
#Luminance manufacturer: Unknown
#Other data:
#Begin Processed Spectral Data
W	S
475.000000	0.130208
476.000000	0.127760
477.000000	0.120882
478.000000	0.123843
479.000000	0.115455
480.000000	0.114302
481.000000	0.113586
482.000000	0.114069
483.000000	0.114500
484.000000	0.116681
485.000000	0.118671
486.000000	0.125951
487.000000	0.127396
488.000000	0.132981
489.000000	0.142536
490.000000	0.150676
491.000000	0.161763
492.000000	0.174935
493.000000	0.185296
494.000000	0.199506
495.000000	0.210948
496.000000	0.230250
497.000000	0.246744
498.000000	0.263105
499.000000	0.280628
500.000000	0.303099
501.000000	0.319017
502.000000	0.344729
503.000000	0.365418
504.000000	0.387878
505.000000	0.403152
506.000000	0.429465
507.000000	0.451186
508.000000	0.474658
509.000000	0.496410
510.000000	0.518019
511.000000	0.545524
512.000000	0.560920
513.000000	0.572892
514.000000	0.595300
515.000000	0.621793
516.000000	0.633340
517.000000	0.649144
518.000000	0.655273
519.000000	0.680164
520.000000	0.686564
521.000000	0.700562
522.000000	0.714628
523.000000	0.729796
524.000000	0.738514
525.000000	0.743685
526.000000	0.757835
527.000000	0.767521
528.000000	0.770815
529.000000	0.782889
530.000000	0.776306
531.000000	0.781633
532.000000	0.792874
533.000000	0.791982
534.000000	0.786199
535.000000	0.797187
536.000000	0.799999
537.000000	0.798101
538.000000	0.798235
539.000000	0.807975
540.000000	0.806803
541.000000	0.809385
542.000000	0.806444
543.000000	0.808676
544.000000	0.807419
545.000000	0.805678
546.000000	0.802141
547.000000	0.805333
548.000000	0.798547
549.000000	0.794628
550.000000	0.801854
551.000000	0.798186
552.000000	0.791699
553.000000	0.793084
554.000000	0.799777
555.000000	0.789126
556.000000	0.795795
557.000000	0.799416
558.000000	0.799106
559.000000	0.786963
560.000000	0.785374
561.000000	0.790720
562.000000	0.779146
563.000000	0.776593
564.000000	0.776360
565.000000	0.770678
566.000000	0.771693
567.000000	0.762312
568.000000	0.765836
569.000000	0.755208
570.000000	0.755365
571.000000	0.737274
572.000000	0.738365
573.000000	0.736429
574.000000	0.728025
575.000000	0.724955
576.000000	0.728742
577.000000	0.718445
578.000000	0.707814
579.000000	0.706873
580.000000	0.702984
581.000000	0.696950
582.000000	0.690001
583.000000	0.692620
584.000000	0.674336
585.000000	0.681677
586.000000	0.675271
587.000000	0.666359
588.000000	0.661597
589.000000	0.653164
590.000000	0.646946
591.000000	0.642307
592.000000	0.633228
593.000000	0.620090
594.000000	0.614429
595.000000	0.610244
596.000000	0.593865
597.000000	0.598212
598.000000	0.585512
599.000000	0.580346
600.000000	0.575236
601.000000	0.565712
602.000000	0.558707
603.000000	0.551794
604.000000	0.545712
605.000000	0.533810
606.000000	0.516170
607.000000	0.513367
608.000000	0.505175
609.000000	0.500386
610.000000	0.489982
611.000000	0.478731
612.000000	0.471129
613.000000	0.468706
614.000000	0.457237
615.000000	0.456986
616.000000	0.447870
617.000000	0.443287
618.000000	0.442576
619.000000	0.431993
620.000000	0.419358
621.000000	0.409503
622.000000	0.400779
623.000000	0.396991
624.000000	0.389826
625.000000	0.378308
626.000000	0.375234
627.000000	0.369295
628.000000	0.362444
629.000000	0.353592
630.000000	0.347829
631.000000	0.342236
632.000000	0.332726
633.000000	0.326352
634.000000	0.321516
635.000000	0.308667
636.000000	0.302544
637.000000	0.292535
638.000000	0.291517
639.000000	0.281481
640.000000	0.276254
641.000000	0.276107
642.000000	0.266594
643.000000	0.256920
644.000000	0.254794
645.000000	0.244704
646.000000	0.241640
647.000000	0.239632
648.000000	0.236271
649.000000	0.227666
650.000000	0.222508
651.000000	0.217497
652.000000	0.208929
653.000000	0.206454
654.000000	0.199853
655.000000	0.191709
656.000000	0.185414
657.000000	0.182968
658.000000	0.181291
659.000000	0.176790
660.000000	0.175585
661.000000	0.167580
662.000000	0.162794
663.000000	0.154931
664.000000	0.155294
665.000000	0.153536
666.000000	0.151189
667.000000	0.144310
668.000000	0.140776
669.000000	0.136148
670.000000	0.132522
671.000000	0.129659
672.000000	0.124513
673.000000	0.123359
674.000000	0.124898
675.000000	0.111210
676.000000	0.113791
677.000000	0.109982
678.000000	0.104345
679.000000	0.106016
680.000000	0.101499
681.000000	0.100115
682.000000	0.099005
683.000000	0.097195
684.000000	0.091404
685.000000	0.086210
686.000000	0.087452
687.000000	0.088158
688.000000	0.083192
689.000000	0.073401
690.000000	0.075595
691.000000	0.076972
692.000000	0.069695
693.000000	0.072421
694.000000	0.071273
695.000000	0.071067
696.000000	0.065133
697.000000	0.060977
698.000000	0.064647
699.000000	0.061580
700.000000	0.062480
701.000000	0.055495
702.000000	0.054127
703.000000	0.059820
704.000000	0.047451
705.000000	0.051918
706.000000	0.048563
707.000000	0.050150
708.000000	0.049437
709.000000	0.045454
710.000000	0.040943
711.000000	0.043930
712.000000	0.043305
713.000000	0.041405
714.000000	0.035354
715.000000	0.038911
716.000000	0.034459
717.000000	0.033337
718.000000	0.037608
719.000000	0.030402
720.000000	0.035615
721.000000	0.035004
722.000000	0.032686
723.000000	0.027024
724.000000	0.031898
725.000000	0.035696
