#LICA Lamps Spectra Database
#Website 1: https://guaix.fis.ucm.es/lamps_spectra
#Website 2: http://carlostapia.es/lamparas/lamps.html
#Latest update: 2017/12/15
#Tester: Carlos Eugenio Tapia Ayuga
#Correct for Electrical Dark: Yes (JAZA2310)
#Correct for Detector Non-linearity: Yes (JAZA2310)
#Correct for Flux: Yes
#Start wavelength (nm): 300
#End wavelength (nm): 900
#Steps (nm):	1
#Locus: D65 sRGB Gamma 1 CIE1931
#XYZ coordinates: 0.0581	0.0623	0.0383
#xyY coordinates: 0.3663	0.3926	0.0623
#sRGB: 19	16	8
#CCT Lindbloom (K):	4495
#CCT McCamy (K):	4484
#CCT Hernández-Andrés (K):	4464
#Melatonin: 0.535
#Chlorophyll a: 0.183
#Chlorophyll b: 0.503
#Beta Carotene: 0.185
#Manufacturer: Unknown
#Luminance manufacturer: Unknown
#Other data: Madrid streetlamp at Facultad de Telecomunicaciones
#Begin Processed Spectral Data
W	S
475.000000	0.053667
476.000000	0.050680
477.000000	0.104327
478.000000	0.110851
479.000000	0.071865
480.000000	0.079671
481.000000	0.064608
482.000000	0.069285
483.000000	0.092752
484.000000	0.089878
485.000000	0.106131
486.000000	0.089306
487.000000	0.087888
488.000000	0.094743
489.000000	0.063220
490.000000	0.085832
491.000000	0.179502
492.000000	0.259617
493.000000	0.173522
494.000000	0.115449
495.000000	0.071567
496.000000	0.083723
497.000000	0.112785
498.000000	0.089063
499.000000	0.088839
500.000000	0.102405
501.000000	0.058282
502.000000	0.041503
503.000000	0.093446
504.000000	0.076944
505.000000	0.053973
506.000000	0.068719
507.000000	0.066445
508.000000	0.044371
509.000000	0.076848
510.000000	0.077703
511.000000	0.068037
512.000000	0.086172
513.000000	0.087355
514.000000	0.063934
515.000000	0.081506
516.000000	0.080362
517.000000	0.068597
518.000000	0.084269
519.000000	0.073161
520.000000	0.067558
521.000000	0.028810
522.000000	0.065072
523.000000	0.071432
524.000000	0.072513
525.000000	0.064684
526.000000	0.057300
527.000000	0.065460
528.000000	0.088177
529.000000	0.085187
530.000000	0.076403
531.000000	0.064891
532.000000	0.086792
533.000000	0.114682
534.000000	0.093466
535.000000	0.125416
536.000000	0.151595
537.000000	0.164254
538.000000	0.164254
539.000000	0.169682
540.000000	0.135699
541.000000	0.134864
542.000000	0.137780
543.000000	0.139955
544.000000	0.152042
545.000000	0.796256
546.000000	10.381683
547.000000	9.707623
548.000000	4.542684
549.000000	2.120697
550.000000	0.735352
551.000000	0.337295
552.000000	0.215778
553.000000	0.197176
554.000000	0.166757
555.000000	0.137679
556.000000	0.120630
557.000000	0.113037
558.000000	0.119252
559.000000	0.134875
560.000000	0.109930
561.000000	0.134258
562.000000	0.126375
563.000000	0.124238
564.000000	0.134414
565.000000	0.094406
566.000000	0.108458
567.000000	0.139893
568.000000	0.166808
569.000000	0.184796
570.000000	0.167811
571.000000	0.144794
572.000000	0.160112
573.000000	0.187903
574.000000	0.198319
575.000000	0.298198
576.000000	1.472782
577.000000	7.028296
578.000000	5.569872
579.000000	8.494240
580.000000	6.309533
581.000000	2.887894
582.000000	1.414234
583.000000	0.559055
584.000000	0.289752
585.000000	0.237215
586.000000	0.215350
587.000000	0.230702
588.000000	0.199395
589.000000	0.198563
590.000000	0.195038
591.000000	0.186192
592.000000	0.202654
593.000000	0.279270
594.000000	0.386664
595.000000	0.409692
596.000000	0.280510
597.000000	0.237637
598.000000	0.218054
599.000000	0.189559
600.000000	0.179114
601.000000	0.125721
602.000000	0.150709
603.000000	0.151037
604.000000	0.144290
605.000000	0.141770
606.000000	0.149998
607.000000	0.122012
608.000000	0.165333
609.000000	0.270464
610.000000	0.229745
611.000000	0.226220
612.000000	0.237198
613.000000	0.268395
614.000000	0.344656
615.000000	0.774944
616.000000	0.938066
617.000000	0.615310
618.000000	0.642424
619.000000	1.132466
620.000000	1.184248
621.000000	0.731731
622.000000	0.529801
623.000000	0.335955
624.000000	0.258159
625.000000	0.243486
626.000000	0.201043
627.000000	0.228457
628.000000	0.162151
629.000000	0.186340
630.000000	0.134669
631.000000	0.133454
632.000000	0.103775
633.000000	0.119710
634.000000	0.116533
635.000000	0.119900
636.000000	0.115520
637.000000	0.109053
638.000000	0.130034
639.000000	0.088941
640.000000	0.125716
641.000000	0.122066
642.000000	0.104913
643.000000	0.120548
644.000000	0.101617
645.000000	0.115925
646.000000	0.103631
647.000000	0.087370
648.000000	0.120344
649.000000	0.113337
650.000000	0.094995
651.000000	0.120495
652.000000	0.154696
653.000000	0.118413
654.000000	0.119438
655.000000	0.139287
656.000000	0.139052
657.000000	0.089841
658.000000	0.073297
659.000000	0.112906
660.000000	0.167366
661.000000	0.149995
662.000000	0.095921
663.000000	0.094542
664.000000	0.083836
665.000000	0.133530
666.000000	0.075058
667.000000	0.145901
668.000000	0.097384
669.000000	0.086486
670.000000	0.140029
671.000000	0.143438
672.000000	0.168411
673.000000	0.083700
674.000000	0.050456
675.000000	0.039479
676.000000	0.102832
677.000000	0.109865
678.000000	0.092789
679.000000	0.091240
680.000000	0.098358
681.000000	0.099420
682.000000	0.095742
683.000000	0.106558
684.000000	0.088032
685.000000	0.073340
686.000000	0.116808
687.000000	0.129674
688.000000	0.077360
689.000000	0.057421
690.000000	0.177361
691.000000	0.224771
692.000000	0.236753
693.000000	0.189032
694.000000	0.130846
695.000000	0.040031
696.000000	0.120268
697.000000	0.113475
698.000000	0.332229
699.000000	0.455779
700.000000	0.312783
701.000000	0.229389
702.000000	0.218289
703.000000	0.243161
704.000000	0.268216
705.000000	0.340313
706.000000	0.249435
707.000000	0.219385
708.000000	0.196575
709.000000	0.143761
710.000000	0.102662
711.000000	0.111904
712.000000	0.066168
713.000000	0.096260
714.000000	0.028767
715.000000	0.113382
716.000000	0.102586
717.000000	0.080212
718.000000	0.153908
719.000000	0.172715
720.000000	0.104817
721.000000	0.040951
722.000000	0.084983
723.000000	0.149386
724.000000	0.000000
725.000000	0.080350
